; (content of file Y:\Sam\Apurva-07-20-2022\puck2\ML_20220720_2_SJD_0_LaB6-4min.raw)
_FILEVERSION = 3
_SAMPLE = ML_20220720_2_SJD_0_LaB6-4min
_+SAMPLE = 
_SITE = USA
_USER = Administrator
_GONIOMETER_CODE = 20
; Goniometer : D8 theta/2theta, stage : Unknown
_ATTACHMENTS_CODE = 0
_GONIOMETER_RADIUS = 200.5
_FIXED_DIVSLIT = 0.6
_FIXED_SAMPLESLIT = 0
_SOLLER_SLITS = 2
_FIXED_DETSLIT = 9.55
_MONOCHROMATOR = 0
; Incident beam monochromator : None
_SOLLER_SLITS_2 = N
_THIN_FILM = N
_BETA_FILTER = Y
_FIXED_ANTISLIT = 5.89
_ANALYZER_CODE = 0
; Received beam analyzer : None
_DATEMEASURED = "25-Jul-2022 17:29:07"
_WL_UNIT = A
_WL1 = 1.5406
_WL2 = 1.54439
_WL3 = 1.39222
_WLRATIO = 0.5
_ANODE = Cu
_V4_INF_CREATOR = XRDWizard
_V4_INF_CREATOR_VERSION = V2.9.0.22
_V4_INF_WIZARD_VERSION = V2.9.0.22
_V4_INF_WIZARD_ADDINS = V2.9.0.22
_V4_INF_WIZARD_DOCTYPE = XRD
_V4_INF_OSUSER = McQueenLab
_V4_INF_USER = Administrator
_V4_INF_SITE = USA
_V4_INF_SAMPLEID = ML_20220720_2_SJD_0_LaB6-4min

; Data for range 1
_DRIVE = COUPLED
_STEPTIME = 11.28
_STEPSIZE = 0.0185756
_STEPMODE = C
_START = 5
_THETA = 2.5
_2THETA = 5
_KHI = 0
_PHI = 0
_X = 0
_Y = 0
_Z = 0
_DETECTOR = 5
; Detector type : Unknown
_DETECTORSLIT = unkn
_AUX1 = 0
_AUX2 = 0
_AUX3 = 0
_TIMESTARTED = 15
_TEMP_RATE = -1
_TEMP_DELAY = -1
_KV = 40
_MA = 40
_RANGE_WL = 1.5406
_3DPLANE = 0
_V4_ADDITIONALDETECTOR = 257
_V4_PSD2THETA = 3.3661
_V4_PSDCHANNEL1 = 0
_V4_PSDAPERTURE = 12.68
_V4_PSDTYPE = 5
_V4_PSDFIXED = 0
_V4_COUNTERS_MASK = 4096
_V4_DRIVES_MASK = 0
_V4_ENCODERS_MASK = 0
_2THETACOUNTS = 1
; 2THETA  PSD
   5.0000        259
   5.0186        270
   5.0372        276
   5.0557        277
   5.0743        285
   5.0929        231
   5.1115        260
   5.1300        276
   5.1486        251
   5.1672        289
   5.1858        268
   5.2043        254
   5.2229        286
   5.2415        241
   5.2601        259
   5.2786        228
   5.2972        254
   5.3158        279
   5.3344        266
   5.3529        261
   5.3715        269
   5.3901        256
   5.4087        240
   5.4272        252
   5.4458        201
   5.4644        262
   5.4830        228
   5.5015        226
   5.5201        210
   5.5387        220
   5.5573        224
   5.5758        224
   5.5944        230
   5.6130        217
   5.6316        241
   5.6501        214
   5.6687        204
   5.6873        209
   5.7059        233
   5.7244        216
   5.7430        209
   5.7616        195
   5.7802        220
   5.7988        202
   5.8173        223
   5.8359        186
   5.8545        220
   5.8731        179
   5.8916        191
   5.9102        196
   5.9288        192
   5.9474        204
   5.9659        200
   5.9845        193
   6.0031        202
   6.0217        195
   6.0402        189
   6.0588        233
   6.0774        204
   6.0960        185
   6.1145        184
   6.1331        205
   6.1517        201
   6.1703        224
   6.1888        196
   6.2074        175
   6.2260        205
   6.2446        203
   6.2631        193
   6.2817        222
   6.3003        161
   6.3189        202
   6.3374        228
   6.3560        194
   6.3746        185
   6.3932        188
   6.4117        162
   6.4303        183
   6.4489        170
   6.4675        185
   6.4860        168
   6.5046        183
   6.5232        175
   6.5418        172
   6.5604        185
   6.5789        173
   6.5975        169
   6.6161        185
   6.6347        173
   6.6532        182
   6.6718        166
   6.6904        152
   6.7090        174
   6.7275        175
   6.7461        184
   6.7647        173
   6.7833        186
   6.8018        171
   6.8204        138
   6.8390        183
   6.8576        165
   6.8761        163
   6.8947        188
   6.9133        188
   6.9319        185
   6.9504        150
   6.9690        178
   6.9876        176
   7.0062        162
   7.0247        189
   7.0433        142
   7.0619        136
   7.0805        154
   7.0990        141
   7.1176        165
   7.1362        165
   7.1548        171
   7.1733        160
   7.1919        154
   7.2105        151
   7.2291        152
   7.2476        140
   7.2662        159
   7.2848        162
   7.3034        168
   7.3220        174
   7.3405        182
   7.3591        146
   7.3777        163
   7.3963        155
   7.4148        182
   7.4334        155
   7.4520        156
   7.4706        164
   7.4891        142
   7.5077        145
   7.5263        165
   7.5449        159
   7.5634        179
   7.5820        185
   7.6006        177
   7.6192        192
   7.6377        160
   7.6563        191
   7.6749        179
   7.6935        184
   7.7120        172
   7.7306        204
   7.7492        186
   7.7678        194
   7.7863        166
   7.8049        182
   7.8235        195
   7.8421        183
   7.8606        172
   7.8792        180
   7.8978        167
   7.9164        143
   7.9349        172
   7.9535        170
   7.9721        163
   7.9907        204
   8.0092        240
   8.0278        182
   8.0464        214
   8.0650        185
   8.0835        195
   8.1021        241
   8.1207        162
   8.1393        192
   8.1579        207
   8.1764        175
   8.1950        184
   8.2136        223
   8.2322        188
   8.2507        211
   8.2693        204
   8.2879        212
   8.3065        179
   8.3250        210
   8.3436        189
   8.3622        180
   8.3808        197
   8.3993        207
   8.4179        196
   8.4365        218
   8.4551        182
   8.4736        205
   8.4922        202
   8.5108        203
   8.5294        216
   8.5479        218
   8.5665        203
   8.5851        186
   8.6037        203
   8.6222        191
   8.6408        213
   8.6594        186
   8.6780        212
   8.6965        216
   8.7151        228
   8.7337        207
   8.7523        213
   8.7708        215
   8.7894        203
   8.8080        194
   8.8266        211
   8.8451        220
   8.8637        213
   8.8823        215
   8.9009        222
   8.9195        211
   8.9380        209
   8.9566        211
   8.9752        203
   8.9938        229
   9.0123        241
   9.0309        216
   9.0495        207
   9.0681        224
   9.0866        208
   9.1052        202
   9.1238        196
   9.1424        203
   9.1609        206
   9.1795        224
   9.1981        193
   9.2167        203
   9.2352        225
   9.2538        231
   9.2724        213
   9.2910        193
   9.3095        214
   9.3281        229
   9.3467        267
   9.3653        205
   9.3838        243
   9.4024        241
   9.4210        224
   9.4396        217
   9.4581        230
   9.4767        211
   9.4953        224
   9.5139        215
   9.5324        219
   9.5510        232
   9.5696        236
   9.5882        229
   9.6067        220
   9.6253        213
   9.6439        220
   9.6625        229
   9.6811        229
   9.6996        252
   9.7182        235
   9.7368        237
   9.7554        235
   9.7739        245
   9.7925        211
   9.8111        242
   9.8297        219
   9.8482        227
   9.8668        225
   9.8854        236
   9.9040        258
   9.9225        245
   9.9411        280
   9.9597        257
   9.9783        221
   9.9968        250
  10.0154        243
  10.0340        239
  10.0526        242
  10.0711        254
  10.0897        248
  10.1083        226
  10.1269        246
  10.1454        257
  10.1640        226
  10.1826        210
  10.2012        243
  10.2197        252
  10.2383        216
  10.2569        234
  10.2755        234
  10.2940        242
  10.3126        251
  10.3312        248
  10.3498        240
  10.3683        228
  10.3869        252
  10.4055        254
  10.4241        259
  10.4427        238
  10.4612        199
  10.4798        226
  10.4984        254
  10.5170        242
  10.5355        279
  10.5541        242
  10.5727        244
  10.5913        222
  10.6098        250
  10.6284        224
  10.6470        290
  10.6656        227
  10.6841        274
  10.7027        268
  10.7213        231
  10.7399        243
  10.7584        241
  10.7770        265
  10.7956        255
  10.8142        219
  10.8327        260
  10.8513        237
  10.8699        231
  10.8885        260
  10.9070        244
  10.9256        244
  10.9442        232
  10.9628        246
  10.9813        219
  10.9999        215
  11.0185        242
  11.0371        246
  11.0556        245
  11.0742        229
  11.0928        222
  11.1114        247
  11.1299        239
  11.1485        263
  11.1671        235
  11.1857        260
  11.2043        237
  11.2228        234
  11.2414        214
  11.2600        273
  11.2786        233
  11.2971        242
  11.3157        257
  11.3343        220
  11.3529        251
  11.3714        236
  11.3900        248
  11.4086        229
  11.4272        253
  11.4457        252
  11.4643        260
  11.4829        252
  11.5015        227
  11.5200        245
  11.5386        253
  11.5572        252
  11.5758        247
  11.5943        245
  11.6129        246
  11.6315        250
  11.6501        236
  11.6686        244
  11.6872        251
  11.7058        230
  11.7244        224
  11.7429        249
  11.7615        241
  11.7801        226
  11.7987        236
  11.8172        244
  11.8358        229
  11.8544        258
  11.8730        228
  11.8915        246
  11.9101        235
  11.9287        238
  11.9473        244
  11.9659        216
  11.9844        221
  12.0030        219
  12.0216        204
  12.0402        236
  12.0587        224
  12.0773        250
  12.0959        252
  12.1145        224
  12.1330        242
  12.1516        242
  12.1702        232
  12.1888        231
  12.2073        234
  12.2259        240
  12.2445        228
  12.2631        253
  12.2816        231
  12.3002        226
  12.3188        219
  12.3374        221
  12.3559        237
  12.3745        258
  12.3931        211
  12.4117        221
  12.4302        214
  12.4488        219
  12.4674        220
  12.4860        224
  12.5045        212
  12.5231        234
  12.5417        255
  12.5603        237
  12.5788        187
  12.5974        240
  12.6160        244
  12.6346        209
  12.6531        214
  12.6717        219
  12.6903        222
  12.7089        200
  12.7274        241
  12.7460        210
  12.7646        228
  12.7832        230
  12.8018        222
  12.8203        217
  12.8389        220
  12.8575        212
  12.8761        215
  12.8946        205
  12.9132        203
  12.9318        202
  12.9504        211
  12.9689        217
  12.9875        208
  13.0061        188
  13.0247        197
  13.0432        224
  13.0618        221
  13.0804        195
  13.0990        221
  13.1175        177
  13.1361        201
  13.1547        213
  13.1733        211
  13.1918        207
  13.2104        206
  13.2290        197
  13.2476        208
  13.2661        192
  13.2847        181
  13.3033        206
  13.3219        186
  13.3404        199
  13.3590        195
  13.3776        213
  13.3962        204
  13.4147        195
  13.4333        212
  13.4519        193
  13.4705        200
  13.4890        185
  13.5076        177
  13.5262        192
  13.5448        181
  13.5634        197
  13.5819        179
  13.6005        202
  13.6191        189
  13.6377        184
  13.6562        172
  13.6748        211
  13.6934        184
  13.7120        213
  13.7305        178
  13.7491        182
  13.7677        211
  13.7863        197
  13.8048        178
  13.8234        182
  13.8420        177
  13.8606        193
  13.8791        210
  13.8977        176
  13.9163        181
  13.9349        181
  13.9534        190
  13.9720        185
  13.9906        186
  14.0092        186
  14.0277        192
  14.0463        162
  14.0649        185
  14.0835        159
  14.1020        196
  14.1206        179
  14.1392        188
  14.1578        202
  14.1763        173
  14.1949        177
  14.2135        174
  14.2321        147
  14.2506        217
  14.2692        176
  14.2878        183
  14.3064        177
  14.3250        163
  14.3435        186
  14.3621        164
  14.3807        165
  14.3993        187
  14.4178        190
  14.4364        165
  14.4550        174
  14.4736        195
  14.4921        191
  14.5107        171
  14.5293        183
  14.5479        182
  14.5664        152
  14.5850        192
  14.6036        165
  14.6222        184
  14.6407        190
  14.6593        155
  14.6779        178
  14.6965        176
  14.7150        184
  14.7336        157
  14.7522        185
  14.7708        182
  14.7893        152
  14.8079        162
  14.8265        172
  14.8451        171
  14.8636        166
  14.8822        167
  14.9008        154
  14.9194        200
  14.9379        173
  14.9565        181
  14.9751        160
  14.9937        191
  15.0122        162
  15.0308        155
  15.0494        156
  15.0680        153
  15.0866        164
  15.1051        154
  15.1237        154
  15.1423        171
  15.1609        163
  15.1794        181
  15.1980        149
  15.2166        181
  15.2352        163
  15.2537        181
  15.2723        167
  15.2909        161
  15.3095        161
  15.3280        146
  15.3466        187
  15.3652        164
  15.3838        168
  15.4023        171
  15.4209        160
  15.4395        194
  15.4581        191
  15.4766        179
  15.4952        183
  15.5138        162
  15.5324        161
  15.5509        180
  15.5695        181
  15.5881        181
  15.6067        170
  15.6252        178
  15.6438        184
  15.6624        164
  15.6810        194
  15.6995        172
  15.7181        146
  15.7367        148
  15.7553        186
  15.7738        154
  15.7924        179
  15.8110        157
  15.8296        151
  15.8482        165
  15.8667        170
  15.8853        175
  15.9039        169
  15.9225        137
  15.9410        203
  15.9596        166
  15.9782        164
  15.9968        167
  16.0153        177
  16.0339        199
  16.0525        139
  16.0711        158
  16.0896        164
  16.1082        150
  16.1268        159
  16.1454        170
  16.1639        152
  16.1825        154
  16.2011        167
  16.2197        143
  16.2382        155
  16.2568        184
  16.2754        144
  16.2940        161
  16.3125        160
  16.3311        173
  16.3497        167
  16.3683        171
  16.3868        180
  16.4054        155
  16.4240        142
  16.4426        165
  16.4611        156
  16.4797        165
  16.4983        154
  16.5169        151
  16.5354        167
  16.5540        164
  16.5726        144
  16.5912        176
  16.6097        174
  16.6283        152
  16.6469        192
  16.6655        183
  16.6841        183
  16.7026        168
  16.7212        154
  16.7398        165
  16.7584        169
  16.7769        155
  16.7955        161
  16.8141        166
  16.8327        162
  16.8512        166
  16.8698        149
  16.8884        165
  16.9070        153
  16.9255        171
  16.9441        139
  16.9627        169
  16.9813        142
  16.9998        177
  17.0184        179
  17.0370        174
  17.0556        168
  17.0741        178
  17.0927        149
  17.1113        152
  17.1299        159
  17.1484        178
  17.1670        174
  17.1856        156
  17.2042        177
  17.2227        153
  17.2413        194
  17.2599        169
  17.2785        165
  17.2970        158
  17.3156        136
  17.3342        166
  17.3528        172
  17.3713        154
  17.3899        149
  17.4085        174
  17.4271        190
  17.4457        162
  17.4642        181
  17.4828        170
  17.5014        152
  17.5200        173
  17.5385        169
  17.5571        162
  17.5757        160
  17.5943        186
  17.6128        153
  17.6314        156
  17.6500        164
  17.6686        154
  17.6871        161
  17.7057        162
  17.7243        170
  17.7429        161
  17.7614        166
  17.7800        167
  17.7986        151
  17.8172        190
  17.8357        144
  17.8543        158
  17.8729        187
  17.8915        164
  17.9100        162
  17.9286        159
  17.9472        169
  17.9658        162
  17.9843        164
  18.0029        152
  18.0215        166
  18.0401        165
  18.0586        187
  18.0772        179
  18.0958        171
  18.1144        201
  18.1329        159
  18.1515        169
  18.1701        153
  18.1887        157
  18.2073        178
  18.2258        186
  18.2444        171
  18.2630        173
  18.2816        172
  18.3001        150
  18.3187        173
  18.3373        170
  18.3559        159
  18.3744        178
  18.3930        152
  18.4116        187
  18.4302        172
  18.4487        171
  18.4673        169
  18.4859        163
  18.5045        156
  18.5230        158
  18.5416        171
  18.5602        188
  18.5788        154
  18.5973        147
  18.6159        176
  18.6345        178
  18.6531        172
  18.6716        162
  18.6902        178
  18.7088        177
  18.7274        175
  18.7459        162
  18.7645        173
  18.7831        176
  18.8017        180
  18.8202        167
  18.8388        150
  18.8574        162
  18.8760        146
  18.8945        159
  18.9131        173
  18.9317        178
  18.9503        157
  18.9689        163
  18.9874        163
  19.0060        169
  19.0246        158
  19.0432        196
  19.0617        189
  19.0803        172
  19.0989        167
  19.1175        169
  19.1360        178
  19.1546        162
  19.1732        174
  19.1918        177
  19.2103        157
  19.2289        160
  19.2475        188
  19.2661        156
  19.2846        158
  19.3032        171
  19.3218        186
  19.3404        173
  19.3589        171
  19.3775        162
  19.3961        173
  19.4147        166
  19.4332        174
  19.4518        170
  19.4704        198
  19.4890        189
  19.5075        164
  19.5261        164
  19.5447        191
  19.5633        180
  19.5818        181
  19.6004        143
  19.6190        151
  19.6376        170
  19.6561        197
  19.6747        164
  19.6933        177
  19.7119        185
  19.7305        170
  19.7490        187
  19.7676        187
  19.7862        176
  19.8048        172
  19.8233        186
  19.8419        183
  19.8605        166
  19.8791        170
  19.8976        198
  19.9162        172
  19.9348        172
  19.9534        190
  19.9719        174
  19.9905        217
  20.0091        195
  20.0277        171
  20.0462        176
  20.0648        163
  20.0834        197
  20.1020        187
  20.1205        200
  20.1391        186
  20.1577        175
  20.1763        165
  20.1948        195
  20.2134        183
  20.2320        174
  20.2506        169
  20.2691        187
  20.2877        181
  20.3063        181
  20.3249        172
  20.3434        200
  20.3620        155
  20.3806        183
  20.3992        186
  20.4177        186
  20.4363        186
  20.4549        195
  20.4735        192
  20.4921        186
  20.5106        186
  20.5292        215
  20.5478        162
  20.5664        183
  20.5849        172
  20.6035        150
  20.6221        212
  20.6407        189
  20.6592        168
  20.6778        196
  20.6964        203
  20.7150        179
  20.7335        169
  20.7521        193
  20.7707        189
  20.7893        208
  20.8078        178
  20.8264        193
  20.8450        184
  20.8636        180
  20.8821        190
  20.9007        174
  20.9193        179
  20.9379        182
  20.9564        196
  20.9750        205
  20.9936        196
  21.0122        220
  21.0307        204
  21.0493        210
  21.0679        207
  21.0865        214
  21.1050        206
  21.1236        218
  21.1422        218
  21.1608        216
  21.1793        245
  21.1979        245
  21.2165        347
  21.2351        323
  21.2537        322
  21.2722        291
  21.2908        318
  21.3094        305
  21.3280        365
  21.3465        496
  21.3651        523
  21.3837        443
  21.4023        344
  21.4208        343
  21.4394        271
  21.4580        220
  21.4766        204
  21.4951        191
  21.5137        214
  21.5323        186
  21.5509        222
  21.5694        204
  21.5880        218
  21.6066        223
  21.6252        231
  21.6437        218
  21.6623        196
  21.6809        198
  21.6995        205
  21.7180        189
  21.7366        211
  21.7552        206
  21.7738        196
  21.7923        218
  21.8109        185
  21.8295        197
  21.8481        222
  21.8666        203
  21.8852        197
  21.9038        191
  21.9224        165
  21.9409        169
  21.9595        217
  21.9781        145
  21.9967        206
  22.0152        183
  22.0338        200
  22.0524        209
  22.0710        190
  22.0896        181
  22.1081        176
  22.1267        196
  22.1453        185
  22.1639        217
  22.1824        189
  22.2010        215
  22.2196        203
  22.2382        196
  22.2567        184
  22.2753        192
  22.2939        218
  22.3125        194
  22.3310        195
  22.3496        231
  22.3682        196
  22.3868        213
  22.4053        201
  22.4239        173
  22.4425        212
  22.4611        223
  22.4796        174
  22.4982        222
  22.5168        205
  22.5354        192
  22.5539        185
  22.5725        203
  22.5911        222
  22.6097        212
  22.6282        180
  22.6468        227
  22.6654        204
  22.6840        195
  22.7025        201
  22.7211        223
  22.7397        180
  22.7583        197
  22.7768        185
  22.7954        215
  22.8140        221
  22.8326        217
  22.8512        194
  22.8697        188
  22.8883        201
  22.9069        207
  22.9255        253
  22.9440        204
  22.9626        214
  22.9812        188
  22.9998        189
  23.0183        204
  23.0369        220
  23.0555        204
  23.0741        179
  23.0926        179
  23.1112        210
  23.1298        207
  23.1484        227
  23.1669        193
  23.1855        202
  23.2041        228
  23.2227        214
  23.2412        194
  23.2598        206
  23.2784        174
  23.2970        218
  23.3155        205
  23.3341        189
  23.3527        193
  23.3713        180
  23.3898        197
  23.4084        208
  23.4270        176
  23.4456        190
  23.4641        204
  23.4827        203
  23.5013        183
  23.5199        197
  23.5384        179
  23.5570        213
  23.5756        206
  23.5942        182
  23.6128        188
  23.6313        194
  23.6499        198
  23.6685        214
  23.6871        231
  23.7056        206
  23.7242        188
  23.7428        176
  23.7614        187
  23.7799        199
  23.7985        211
  23.8171        186
  23.8357        200
  23.8542        198
  23.8728        210
  23.8914        183
  23.9100        202
  23.9285        226
  23.9471        190
  23.9657        208
  23.9843        189
  24.0028        184
  24.0214        216
  24.0400        198
  24.0586        234
  24.0771        189
  24.0957        222
  24.1143        206
  24.1329        224
  24.1514        222
  24.1700        205
  24.1886        212
  24.2072        212
  24.2257        231
  24.2443        250
  24.2629        251
  24.2815        237
  24.3000        239
  24.3186        233
  24.3372        246
  24.3558        207
  24.3744        207
  24.3929        216
  24.4115        199
  24.4301        213
  24.4487        230
  24.4672        201
  24.4858        206
  24.5044        170
  24.5230        191
  24.5415        204
  24.5601        183
  24.5787        189
  24.5973        188
  24.6158        198
  24.6344        213
  24.6530        202
  24.6716        216
  24.6901        202
  24.7087        217
  24.7273        192
  24.7459        184
  24.7644        207
  24.7830        186
  24.8016        177
  24.8202        221
  24.8387        203
  24.8573        174
  24.8759        199
  24.8945        192
  24.9130        211
  24.9316        192
  24.9502        201
  24.9688        215
  24.9873        201
  25.0059        175
  25.0245        197
  25.0431        188
  25.0616        195
  25.0802        220
  25.0988        221
  25.1174        193
  25.1360        211
  25.1545        210
  25.1731        194
  25.1917        178
  25.2103        212
  25.2288        201
  25.2474        190
  25.2660        191
  25.2846        214
  25.3031        191
  25.3217        197
  25.3403        187
  25.3589        220
  25.3774        190
  25.3960        186
  25.4146        186
  25.4332        216
  25.4517        189
  25.4703        212
  25.4889        203
  25.5075        179
  25.5260        203
  25.5446        190
  25.5632        212
  25.5818        158
  25.6003        207
  25.6189        223
  25.6375        178
  25.6561        191
  25.6746        189
  25.6932        176
  25.7118        183
  25.7304        178
  25.7489        199
  25.7675        207
  25.7861        212
  25.8047        200
  25.8232        201
  25.8418        172
  25.8604        177
  25.8790        188
  25.8976        212
  25.9161        202
  25.9347        203
  25.9533        200
  25.9719        201
  25.9904        176
  26.0090        205
  26.0276        205
  26.0462        186
  26.0647        186
  26.0833        198
  26.1019        198
  26.1205        183
  26.1390        193
  26.1576        187
  26.1762        184
  26.1948        190
  26.2133        189
  26.2319        184
  26.2505        212
  26.2691        200
  26.2876        179
  26.3062        218
  26.3248        180
  26.3434        195
  26.3619        199
  26.3805        199
  26.3991        181
  26.4177        197
  26.4362        199
  26.4548        207
  26.4734        191
  26.4920        179
  26.5105        180
  26.5291        212
  26.5477        211
  26.5663        211
  26.5848        194
  26.6034        200
  26.6220        176
  26.6406        190
  26.6591        195
  26.6777        178
  26.6963        181
  26.7149        179
  26.7335        192
  26.7520        183
  26.7706        212
  26.7892        158
  26.8078        197
  26.8263        185
  26.8449        178
  26.8635        187
  26.8821        176
  26.9006        205
  26.9192        161
  26.9378        175
  26.9564        188
  26.9749        159
  26.9935        186
  27.0121        194
  27.0307        221
  27.0492        189
  27.0678        196
  27.0864        182
  27.1050        192
  27.1235        203
  27.1421        229
  27.1607        207
  27.1793        226
  27.1978        249
  27.2164        242
  27.2350        255
  27.2536        234
  27.2721        214
  27.2907        210
  27.3093        227
  27.3279        209
  27.3464        223
  27.3650        202
  27.3836        205
  27.4022        200
  27.4207        184
  27.4393        199
  27.4579        184
  27.4765        194
  27.4951        174
  27.5136        183
  27.5322        196
  27.5508        174
  27.5694        201
  27.5879        196
  27.6065        168
  27.6251        173
  27.6437        199
  27.6622        196
  27.6808        200
  27.6994        192
  27.7180        174
  27.7365        201
  27.7551        168
  27.7737        176
  27.7923        198
  27.8108        199
  27.8294        185
  27.8480        185
  27.8666        211
  27.8851        164
  27.9037        180
  27.9223        165
  27.9409        182
  27.9594        174
  27.9780        170
  27.9966        182
  28.0152        173
  28.0337        170
  28.0523        195
  28.0709        166
  28.0895        172
  28.1080        153
  28.1266        168
  28.1452        158
  28.1638        191
  28.1823        159
  28.2009        185
  28.2195        151
  28.2381        171
  28.2567        158
  28.2752        189
  28.2938        179
  28.3124        167
  28.3310        153
  28.3495        169
  28.3681        138
  28.3867        144
  28.4053        155
  28.4238        171
  28.4424        178
  28.4610        150
  28.4796        194
  28.4981        159
  28.5167        174
  28.5353        168
  28.5539        178
  28.5724        162
  28.5910        147
  28.6096        182
  28.6282        169
  28.6467        159
  28.6653        172
  28.6839        157
  28.7025        165
  28.7210        158
  28.7396        171
  28.7582        188
  28.7768        177
  28.7953        164
  28.8139        168
  28.8325        145
  28.8511        173
  28.8696        175
  28.8882        172
  28.9068        165
  28.9254        183
  28.9439        175
  28.9625        165
  28.9811        168
  28.9997        146
  29.0183        165
  29.0368        176
  29.0554        173
  29.0740        174
  29.0926        162
  29.1111        171
  29.1297        136
  29.1483        166
  29.1669        140
  29.1854        167
  29.2040        163
  29.2226        157
  29.2412        155
  29.2597        155
  29.2783        158
  29.2969        148
  29.3155        161
  29.3340        176
  29.3526        156
  29.3712        154
  29.3898        183
  29.4083        155
  29.4269        169
  29.4455        164
  29.4641        172
  29.4826        173
  29.5012        179
  29.5198        149
  29.5384        160
  29.5569        155
  29.5755        158
  29.5941        148
  29.6127        148
  29.6312        156
  29.6498        178
  29.6684        157
  29.6870        167
  29.7055        155
  29.7241        168
  29.7427        154
  29.7613        142
  29.7799        167
  29.7984        159
  29.8170        154
  29.8356        147
  29.8542        173
  29.8727        144
  29.8913        149
  29.9099        169
  29.9285        174
  29.9470        146
  29.9656        151
  29.9842        153
  30.0028        134
  30.0213        162
  30.0399        177
  30.0585        142
  30.0771        145
  30.0956        160
  30.1142        127
  30.1328        143
  30.1514        193
  30.1699        157
  30.1885        174
  30.2071        158
  30.2257        164
  30.2442        182
  30.2628        160
  30.2814        179
  30.3000        189
  30.3185        172
  30.3371        209
  30.3557        232
  30.3743        332
  30.3928        338
  30.4114        257
  30.4300        231
  30.4486        247
  30.4671        264
  30.4857        202
  30.5043        215
  30.5229        172
  30.5415        172
  30.5600        177
  30.5786        188
  30.5972        183
  30.6158        155
  30.6343        144
  30.6529        145
  30.6715        164
  30.6901        162
  30.7086        151
  30.7272        177
  30.7458        132
  30.7644        134
  30.7829        176
  30.8015        147
  30.8201        172
  30.8387        131
  30.8572        141
  30.8758        155
  30.8944        187
  30.9130        134
  30.9315        136
  30.9501        142
  30.9687        140
  30.9873        144
  31.0058        144
  31.0244        136
  31.0430        152
  31.0616        141
  31.0801        133
  31.0987        158
  31.1173        144
  31.1359        157
  31.1544        162
  31.1730        142
  31.1916        144
  31.2102        147
  31.2287        159
  31.2473        134
  31.2659        157
  31.2845        150
  31.3030        143
  31.3216        133
  31.3402        130
  31.3588        144
  31.3774        167
  31.3959        158
  31.4145        142
  31.4331        138
  31.4517        149
  31.4702        125
  31.4888        140
  31.5074        137
  31.5260        141
  31.5445        134
  31.5631        138
  31.5817        151
  31.6003        150
  31.6188        132
  31.6374        134
  31.6560        158
  31.6746        141
  31.6931        129
  31.7117        126
  31.7303        141
  31.7489        114
  31.7674        150
  31.7860        139
  31.8046        155
  31.8232        126
  31.8417        128
  31.8603        130
  31.8789        152
  31.8975        134
  31.9160        141
  31.9346        114
  31.9532        119
  31.9718        143
  31.9903        141
  32.0089        131
  32.0275        144
  32.0461        137
  32.0646        139
  32.0832        124
  32.1018        132
  32.1204        121
  32.1390        139
  32.1575        131
  32.1761        141
  32.1947        138
  32.2133        131
  32.2318        127
  32.2504        131
  32.2690        129
  32.2876        141
  32.3061        140
  32.3247        143
  32.3433        157
  32.3619        145
  32.3804        122
  32.3990        155
  32.4176        144
  32.4362        139
  32.4547        136
  32.4733        180
  32.4919        157
  32.5105        163
  32.5290        167
  32.5476        127
  32.5662        145
  32.5848        149
  32.6033        122
  32.6219        144
  32.6405        131
  32.6591        125
  32.6776        138
  32.6962        121
  32.7148        136
  32.7334        123
  32.7519        128
  32.7705        146
  32.7891        125
  32.8077        126
  32.8262        128
  32.8448        143
  32.8634        152
  32.8820        118
  32.9006        127
  32.9191        112
  32.9377        130
  32.9563        122
  32.9749        116
  32.9934        108
  33.0120        133
  33.0306        132
  33.0492        123
  33.0677        103
  33.0863        111
  33.1049        131
  33.1235        124
  33.1420        123
  33.1606        117
  33.1792        118
  33.1978        111
  33.2163        108
  33.2349        113
  33.2535        122
  33.2721        132
  33.2906        128
  33.3092        120
  33.3278        109
  33.3464        141
  33.3649        122
  33.3835        113
  33.4021        134
  33.4207        113
  33.4392        139
  33.4578        116
  33.4764        135
  33.4950        110
  33.5135        132
  33.5321        101
  33.5507        122
  33.5693        124
  33.5878        109
  33.6064        122
  33.6250        111
  33.6436        101
  33.6622        135
  33.6807        125
  33.6993        119
  33.7179        123
  33.7365        107
  33.7550        107
  33.7736        110
  33.7922        106
  33.8108        107
  33.8293        127
  33.8479        109
  33.8665        125
  33.8851        122
  33.9036        126
  33.9222        136
  33.9408        125
  33.9594        104
  33.9779        104
  33.9965        107
  34.0151        131
  34.0337        145
  34.0522        114
  34.0708        104
  34.0894        103
  34.1080        123
  34.1265        127
  34.1451        122
  34.1637        126
  34.1823        125
  34.2008        107
  34.2194        108
  34.2380         99
  34.2566        120
  34.2751        111
  34.2937        112
  34.3123        106
  34.3309        116
  34.3494        126
  34.3680        120
  34.3866         95
  34.4052        106
  34.4238        131
  34.4423        117
  34.4609         96
  34.4795        107
  34.4981        124
  34.5166        104
  34.5352        122
  34.5538        129
  34.5724        123
  34.5909        143
  34.6095        115
  34.6281        148
  34.6467        122
  34.6652        115
  34.6838        121
  34.7024        152
  34.7210        157
  34.7395        172
  34.7581        159
  34.7767        165
  34.7953        168
  34.8138        138
  34.8324        139
  34.8510        163
  34.8696        116
  34.8881        125
  34.9067        124
  34.9253        122
  34.9439        126
  34.9624         97
  34.9810         92
  34.9996        126
  35.0182        118
  35.0367         97
  35.0553        113
  35.0739        102
  35.0925        112
  35.1110        116
  35.1296        105
  35.1482        103
  35.1668         99
  35.1854        109
  35.2039        101
  35.2225        117
  35.2411        110
  35.2597         97
  35.2782        102
  35.2968        112
  35.3154         99
  35.3340        107
  35.3525        111
  35.3711        100
  35.3897        120
  35.4083        108
  35.4268        102
  35.4454        100
  35.4640         87
  35.4826        118
  35.5011        113
  35.5197        117
  35.5383        113
  35.5569        103
  35.5754        103
  35.5940        100
  35.6126         90
  35.6312        107
  35.6497        105
  35.6683        117
  35.6869        116
  35.7055        101
  35.7240         93
  35.7426         93
  35.7612        112
  35.7798         96
  35.7983         95
  35.8169        100
  35.8355         99
  35.8541        108
  35.8726         95
  35.8912        105
  35.9098         82
  35.9284        103
  35.9469         86
  35.9655         92
  35.9841        111
  36.0027        104
  36.0213         97
  36.0398         97
  36.0584         91
  36.0770        112
  36.0956         95
  36.1141        104
  36.1327        106
  36.1513        102
  36.1699        111
  36.1884         92
  36.2070         89
  36.2256         91
  36.2442         92
  36.2627         92
  36.2813         88
  36.2999         97
  36.3185         99
  36.3370         89
  36.3556         95
  36.3742         83
  36.3928         93
  36.4113         99
  36.4299         86
  36.4485         97
  36.4671         97
  36.4856         95
  36.5042        101
  36.5228        106
  36.5414         85
  36.5599         86
  36.5785         92
  36.5971         96
  36.6157         95
  36.6342        107
  36.6528        105
  36.6714         96
  36.6900        102
  36.7085         74
  36.7271         87
  36.7457         86
  36.7643        103
  36.7829        100
  36.8014        102
  36.8200         93
  36.8386         83
  36.8572        102
  36.8757         88
  36.8943         84
  36.9129         89
  36.9315         92
  36.9500         89
  36.9686         93
  36.9872         79
  37.0058         94
  37.0243         95
  37.0429         88
  37.0615         98
  37.0801         78
  37.0986         95
  37.1172         95
  37.1358        109
  37.1544         99
  37.1729        104
  37.1915        110
  37.2101         81
  37.2287        109
  37.2472         98
  37.2658        100
  37.2844         96
  37.3030         89
  37.3215         91
  37.3401         97
  37.3587         95
  37.3773        101
  37.3958         97
  37.4144        118
  37.4330        140
  37.4516        147
  37.4701        132
  37.4887        110
  37.5073        107
  37.5259        128
  37.5445        134
  37.5630        125
  37.5816        102
  37.6002        102
  37.6188         79
  37.6373         96
  37.6559         95
  37.6745         94
  37.6931        103
  37.7116        114
  37.7302         78
  37.7488         92
  37.7674         97
  37.7859         90
  37.8045         83
  37.8231         93
  37.8417         87
  37.8602         81
  37.8788        103
  37.8974         94
  37.9160         95
  37.9345         93
  37.9531         84
  37.9717         79
  37.9903         80
  38.0088         80
  38.0274         86
  38.0460         88
  38.0646         83
  38.0831         80
  38.1017         76
  38.1203         88
  38.1389         84
  38.1574         90
  38.1760         88
  38.1946         83
  38.2132         92
  38.2317         86
  38.2503         93
  38.2689         97
  38.2875         87
  38.3061         87
  38.3246         84
  38.3432         97
  38.3618         87
  38.3804         87
  38.3989         80
  38.4175         72
  38.4361         75
  38.4547         71
  38.4732         89
  38.4918         73
  38.5104         84
  38.5290         79
  38.5475         99
  38.5661         76
  38.5847        100
  38.6033         96
  38.6218         85
  38.6404         80
  38.6590         94
  38.6776         87
  38.6961         81
  38.7147         95
  38.7333         78
  38.7519         89
  38.7704         78
  38.7890         84
  38.8076         82
  38.8262         81
  38.8447         89
  38.8633         81
  38.8819         78
  38.9005         91
  38.9190         71
  38.9376         81
  38.9562         96
  38.9748         78
  38.9933         97
  39.0119         92
  39.0305         81
  39.0491         90
  39.0677        102
  39.0862         86
  39.1048         88
  39.1234         77
  39.1420         89
  39.1605         83
  39.1791         77
  39.1977         73
  39.2163         84
  39.2348         80
  39.2534         88
  39.2720         84
  39.2906         83
  39.3091         77
  39.3277         79
  39.3463         81
  39.3649         82
  39.3834         80
  39.4020         75
  39.4206         85
  39.4392         88
  39.4577         82
  39.4763         83
  39.4949         68
  39.5135         82
  39.5320         89
  39.5506        105
  39.5692         79
  39.5878         78
  39.6063         72
  39.6249         68
  39.6435         77
  39.6621         65
  39.6806         96
  39.6992         99
  39.7178         75
  39.7364         80
  39.7549         80
  39.7735         72
  39.7921         78
  39.8107         96
  39.8293         80
  39.8478         81
  39.8664         72
  39.8850         79
  39.9036         74
  39.9221         95
  39.9407         70
  39.9593         80
  39.9779         74
  39.9964         93
  40.0150         74
  40.0336         74
  40.0522         81
  40.0707         80
  40.0893         88
  40.1079         85
  40.1265         66
  40.1450         74
  40.1636         66
  40.1822         85
  40.2008         87
  40.2193         83
  40.2379         73
  40.2565         79
  40.2751         67
  40.2936         66
  40.3122         85
  40.3308         80
  40.3494         68
  40.3679         76
  40.3865         74
  40.4051         80
  40.4237         75
  40.4422         87
  40.4608         67
  40.4794         90
  40.4980         71
  40.5165         67
  40.5351         70
  40.5537         85
  40.5723         87
  40.5908         76
  40.6094         72
  40.6280         86
  40.6466         78
  40.6652         81
  40.6837         87
  40.7023         88
  40.7209         83
  40.7395         71
  40.7580         83
  40.7766         77
  40.7952         84
  40.8138         68
  40.8323         87
  40.8509         81
  40.8695         71
  40.8881         86
  40.9066         87
  40.9252         74
  40.9438         91
  40.9624         87
  40.9809         81
  40.9995         82
  41.0181         64
  41.0367         85
  41.0552         80
  41.0738         98
  41.0924         79
  41.1110         84
  41.1295         72
  41.1481         84
  41.1667         74
  41.1853         84
  41.2038         83
  41.2224         75
  41.2410         72
  41.2596         62
  41.2781         82
  41.2967         76
  41.3153         83
  41.3339         74
  41.3524         75
  41.3710         71
  41.3896         78
  41.4082         75
  41.4268         79
  41.4453         68
  41.4639         63
  41.4825         76
  41.5011         73
  41.5196         74
  41.5382         87
  41.5568         80
  41.5754         82
  41.5939         63
  41.6125         85
  41.6311         79
  41.6497         64
  41.6682         70
  41.6868         71
  41.7054         85
  41.7240         60
  41.7425         67
  41.7611         79
  41.7797         71
  41.7983         90
  41.8168         73
  41.8354         71
  41.8540         69
  41.8726         72
  41.8911         80
  41.9097         76
  41.9283         68
  41.9469         95
  41.9654         92
  41.9840         79
  42.0026         69
  42.0212         72
  42.0397         73
  42.0583         62
  42.0769         81
  42.0955         74
  42.1140         75
  42.1326         74
  42.1512         81
  42.1698         72
  42.1884         81
  42.2069         68
  42.2255         68
  42.2441         71
  42.2627         68
  42.2812         70
  42.2998         72
  42.3184         56
  42.3370         67
  42.3555         72
  42.3741         80
  42.3927         63
  42.4113         52
  42.4298         70
  42.4484         78
  42.4670         82
  42.4856         63
  42.5041         94
  42.5227         81
  42.5413         88
  42.5599         57
  42.5784         71
  42.5970         76
  42.6156         75
  42.6342         83
  42.6527         63
  42.6713         76
  42.6899         68
  42.7085         89
  42.7270         89
  42.7456         68
  42.7642         80
  42.7828         73
  42.8013         80
  42.8199         62
  42.8385         71
  42.8571         90
  42.8756         87
  42.8942         91
  42.9128         82
  42.9314         79
  42.9500         85
  42.9685         72
  42.9871         68
  43.0057         75
  43.0243         62
  43.0428         94
  43.0614         69
  43.0800         65
  43.0986         85
  43.1171         93
  43.1357         73
  43.1543         84
  43.1729         70
  43.1914         81
  43.2100         90
  43.2286         97
  43.2472         83
  43.2657        106
  43.2843         76
  43.3029        101
  43.3215         95
  43.3400         82
  43.3586         95
  43.3772         73
  43.3958         86
  43.4143         86
  43.4329         79
  43.4515         79
  43.4701        108
  43.4886        114
  43.5072        129
  43.5258        126
  43.5444         93
  43.5629         91
  43.5815        109
  43.6001         98
  43.6187        111
  43.6372         99
  43.6558        102
  43.6744         81
  43.6930         81
  43.7116         85
  43.7301         75
  43.7487         76
  43.7673         91
  43.7859         87
  43.8044         69
  43.8230         65
  43.8416         71
  43.8602         72
  43.8787         64
  43.8973         91
  43.9159         74
  43.9345         63
  43.9530         82
  43.9716         81
  43.9902         64
  44.0088         51
  44.0273         72
  44.0459         68
  44.0645         96
  44.0831         74
  44.1016         84
  44.1202         75
  44.1388         70
  44.1574         82
  44.1759         90
  44.1945         85
  44.2131         77
  44.2317         78
  44.2502         70
  44.2688         70
  44.2874         76
  44.3060         79
  44.3245         68
  44.3431         67
  44.3617         86
  44.3803         61
  44.3988         66
  44.4174         84
  44.4360         69
  44.4546         57
  44.4732         75
  44.4917         79
  44.5103         66
  44.5289         90
  44.5475        100
  44.5660         85
  44.5846         84
  44.6032         79
  44.6218         92
  44.6403         74
  44.6589         86
  44.6775         86
  44.6961         83
  44.7146         98
  44.7332         86
  44.7518         87
  44.7704         79
  44.7889         72
  44.8075         68
  44.8261         98
  44.8447         68
  44.8632         79
  44.8818         70
  44.9004         80
  44.9190         79
  44.9375         93
  44.9561         79
  44.9747         70
  44.9933         80
  45.0118         60
  45.0304         80
  45.0490         76
  45.0676         65
  45.0861         82
  45.1047         82
  45.1233         61
  45.1419         79
  45.1604         71
  45.1790         73
  45.1976         71
  45.2162         73
  45.2347         65
  45.2533         74
  45.2719         79
  45.2905         73
  45.3091         72
  45.3276         66
  45.3462         80
  45.3648         65
  45.3834         75
  45.4019         79
  45.4205         66
  45.4391         63
  45.4577         61
  45.4762         64
  45.4948         55
  45.5134         52
  45.5320         74
  45.5505         55
  45.5691         57
  45.5877         79
  45.6063         62
  45.6248         68
  45.6434         59
  45.6620         63
  45.6806         56
  45.6991         77
  45.7177         61
  45.7363         51
  45.7549         62
  45.7734         61
  45.7920         64
  45.8106         63
  45.8292         72
  45.8477         65
  45.8663         70
  45.8849         77
  45.9035         61
  45.9220         59
  45.9406         65
  45.9592         73
  45.9778         63
  45.9963         74
  46.0149         64
  46.0335         55
  46.0521         71
  46.0707         59
  46.0892         64
  46.1078         78
  46.1264         57
  46.1450         70
  46.1635         72
  46.1821         72
  46.2007         64
  46.2193         70
  46.2378         71
  46.2564         73
  46.2750         54
  46.2936         66
  46.3121         68
  46.3307         56
  46.3493         80
  46.3679         80
  46.3864         68
  46.4050         74
  46.4236         77
  46.4422         66
  46.4607         74
  46.4793         75
  46.4979         71
  46.5165         54
  46.5350         75
  46.5536         75
  46.5722         69
  46.5908         67
  46.6093         57
  46.6279         67
  46.6465         62
  46.6651         77
  46.6836         56
  46.7022         84
  46.7208         77
  46.7394         58
  46.7579         69
  46.7765         63
  46.7951         74
  46.8137         72
  46.8323         60
  46.8508         57
  46.8694         58
  46.8880         69
  46.9066         72
  46.9251         57
  46.9437         68
  46.9623         82
  46.9809         68
  46.9994         61
  47.0180         62
  47.0366         66
  47.0552         62
  47.0737         62
  47.0923         74
  47.1109         68
  47.1295         54
  47.1480         64
  47.1666         80
  47.1852         52
  47.2038         56
  47.2223         77
  47.2409         63
  47.2595         63
  47.2781         81
  47.2966         55
  47.3152         62
  47.3338         59
  47.3524         62
  47.3709         77
  47.3895         59
  47.4081         65
  47.4267         64
  47.4452         66
  47.4638         65
  47.4824         75
  47.5010         60
  47.5195         69
  47.5381         74
  47.5567         73
  47.5753         68
  47.5939         63
  47.6124         50
  47.6310         68
  47.6496         63
  47.6682         79
  47.6867         66
  47.7053         65
  47.7239         55
  47.7425         59
  47.7610         52
  47.7796         50
  47.7982         54
  47.8168         77
  47.8353         71
  47.8539         70
  47.8725         61
  47.8911         63
  47.9096         59
  47.9282         52
  47.9468         62
  47.9654         70
  47.9839         57
  48.0025         61
  48.0211         76
  48.0397         52
  48.0582         58
  48.0768         75
  48.0954         61
  48.1140         62
  48.1325         64
  48.1511         57
  48.1697         54
  48.1883         64
  48.2068         53
  48.2254         46
  48.2440         53
  48.2626         74
  48.2811         55
  48.2997         55
  48.3183         63
  48.3369         65
  48.3555         48
  48.3740         55
  48.3926         58
  48.4112         74
  48.4298         79
  48.4483         55
  48.4669         62
  48.4855         58
  48.5041         66
  48.5226         68
  48.5412         64
  48.5598         57
  48.5784         76
  48.5969         45
  48.6155         77
  48.6341         65
  48.6527         75
  48.6712         53
  48.6898         65
  48.7084         69
  48.7270         61
  48.7455         76
  48.7641         74
  48.7827         54
  48.8013         58
  48.8198         63
  48.8384         66
  48.8570         66
  48.8756         59
  48.8941         86
  48.9127         77
  48.9313         87
  48.9499        141
  48.9684        111
  48.9870         88
  49.0056         80
  49.0242         75
  49.0427         73
  49.0613         82
  49.0799         93
  49.0985         95
  49.1171         78
  49.1356         77
  49.1542         59
  49.1728         68
  49.1914         70
  49.2099         76
  49.2285         70
  49.2471         62
  49.2657         56
  49.2842         58
  49.3028         59
  49.3214         78
  49.3400         61
  49.3585         69
  49.3771         68
  49.3957         59
  49.4143         67
  49.4328         69
  49.4514         62
  49.4700         70
  49.4886         57
  49.5071         60
  49.5257         62
  49.5443         70
  49.5629         50
  49.5814         71
  49.6000         69
  49.6186         62
  49.6372         60
  49.6557         57
  49.6743         61
  49.6929         61
  49.7115         62
  49.7300         55
  49.7486         73
  49.7672         54
  49.7858         72
  49.8043         66
  49.8229         62
  49.8415         77
  49.8601         79
  49.8786         51
  49.8972         67
  49.9158         65
  49.9344         60
  49.9530         70
  49.9715         62
  49.9901         61
  50.0087         69
  50.0273         72
  50.0458         59
  50.0644         58
  50.0830         65
  50.1016         54
  50.1201         63
  50.1387         73
  50.1573         70
  50.1759         60
  50.1944         61
  50.2130         63
  50.2316         69
  50.2502         67
  50.2687         71
  50.2873         62
  50.3059         66
  50.3245         66
  50.3430         72
  50.3616         54
  50.3802         69
  50.3988         67
  50.4173         57
  50.4359         67
  50.4545         62
  50.4731         65
  50.4916         50
  50.5102         65
  50.5288         49
  50.5474         59
  50.5659         64
  50.5845         52
  50.6031         75
  50.6217         58
  50.6402         60
  50.6588         45
  50.6774         52
  50.6960         59
  50.7146         50
  50.7331         62
  50.7517         68
  50.7703         62
  50.7889         72
  50.8074         64
  50.8260         63
  50.8446         64
  50.8632         58
  50.8817         71
  50.9003         65
  50.9189         52
  50.9375         72
  50.9560         56
  50.9746         60
  50.9932         48
  51.0118         75
  51.0303         59
  51.0489         66
  51.0675         70
  51.0861         60
  51.1046         50
  51.1232         55
  51.1418         72
  51.1604         62
  51.1789         47
  51.1975         54
  51.2161         54
  51.2347         66
  51.2532         75
  51.2718         60
  51.2904         61
  51.3090         64
  51.3275         82
  51.3461         77
  51.3647         76
  51.3833         69
  51.4018         86
  51.4204         74
  51.4390         77
  51.4576         67
  51.4762         74
  51.4947         73
  51.5133         61
  51.5319         62
  51.5505         54
  51.5690         66
  51.5876         59
  51.6062         64
  51.6248         69
  51.6433         68
  51.6619         59
  51.6805         51
  51.6991         70
  51.7176         68
  51.7362         63
  51.7548         57
  51.7734         50
  51.7919         58
  51.8105         57
  51.8291         48
  51.8477         66
  51.8662         58
  51.8848         62
  51.9034         64
  51.9220         64
  51.9405         60
  51.9591         75
  51.9777         79
  51.9963         64
  52.0148         64
  52.0334         54
  52.0520         67
  52.0706         57
  52.0891         63
  52.1077         54
  52.1263         62
  52.1449         54
  52.1634         59
  52.1820         59
  52.2006         49
  52.2192         58
  52.2378         61
  52.2563         61
  52.2749         48
  52.2935         64
  52.3121         51
  52.3306         56
  52.3492         64
  52.3678         63
  52.3864         71
  52.4049         56
  52.4235         67
  52.4421         55
  52.4607         52
  52.4792         57
  52.4978         60
  52.5164         61
  52.5350         62
  52.5535         48
  52.5721         44
  52.5907         45
  52.6093         69
  52.6278         54
  52.6464         62
  52.6650         52
  52.6836         72
  52.7021         55
  52.7207         46
  52.7393         53
  52.7579         44
  52.7764         64
  52.7950         72
  52.8136         53
  52.8322         66
  52.8507         53
  52.8693         60
  52.8879         72
  52.9065         64
  52.9250         64
  52.9436         62
  52.9622         58
  52.9808         78
  52.9994         58
  53.0179         60
  53.0365         73
  53.0551         59
  53.0737         63
  53.0922         82
  53.1108         64
  53.1294         59
  53.1480         54
  53.1665         62
  53.1851         63
  53.2037         59
  53.2223         70
  53.2408         64
  53.2594         54
  53.2780         57
  53.2966         50
  53.3151         51
  53.3337         57
  53.3523         62
  53.3709         58
  53.3894         62
  53.4080         57
  53.4266         64
  53.4452         62
  53.4637         53
  53.4823         39
  53.5009         59
  53.5195         62
  53.5380         65
  53.5566         53
  53.5752         62
  53.5938         63
  53.6123         66
  53.6309         49
  53.6495         62
  53.6681         57
  53.6866         56
  53.7052         56
  53.7238         56
  53.7424         64
  53.7610         63
  53.7795         56
  53.7981         66
  53.8167         44
  53.8353         61
  53.8538         59
  53.8724         53
  53.8910         55
  53.9096         75
  53.9281         57
  53.9467         64
  53.9653         85
  53.9839         98
  54.0024         79
  54.0210         76
  54.0396         50
  54.0582         56
  54.0767         68
  54.0953         59
  54.1139         63
  54.1325         80
  54.1510         66
  54.1696         58
  54.1882         51
  54.2068         55
  54.2253         52
  54.2439         56
  54.2625         54
  54.2811         58
  54.2996         55
  54.3182         47
  54.3368         69
  54.3554         60
  54.3739         60
  54.3925         66
  54.4111         52
  54.4297         52
  54.4482         58
  54.4668         55
  54.4854         57
  54.5040         75
  54.5225         65
  54.5411         69
  54.5597         57
  54.5783         60
  54.5969         59
  54.6154         51
  54.6340         55
  54.6526         60
  54.6712         49
  54.6897         53
  54.7083         50
  54.7269         49
  54.7455         51
  54.7640         55
  54.7826         71
  54.8012         51
  54.8198         55
  54.8383         49
  54.8569         47
  54.8755         53
  54.8941         51
  54.9126         61
  54.9312         70
  54.9498         56
  54.9684         55
  54.9869         56
  55.0055         67
  55.0241         67
  55.0427         44
  55.0612         61
  55.0798         61
  55.0984         42
  55.1170         59
  55.1355         57
  55.1541         55
  55.1727         51
  55.1913         45
  55.2098         46
  55.2284         50
  55.2470         64
  55.2656         57
  55.2841         64
  55.3027         51
  55.3213         62
  55.3399         57
  55.3585         70
  55.3770         62
  55.3956         56
  55.4142         60
  55.4328         54
  55.4513         64
  55.4699         50
  55.4885         54
  55.5071         58
  55.5256         57
  55.5442         66
  55.5628         54
  55.5814         51
  55.5999         51
  55.6185         62
  55.6371         44
  55.6557         52
  55.6742         51
  55.6928         45
  55.7114         51
  55.7300         63
  55.7485         75
  55.7671         59
  55.7857         50
  55.8043         44
  55.8228         62
  55.8414         60
  55.8600         77
  55.8786         61
  55.8971         60
  55.9157         48
  55.9343         42
  55.9529         60
  55.9714         72
  55.9900         41
  56.0086         47
  56.0272         64
  56.0457         76
  56.0643         68
  56.0829         61
  56.1015         58
  56.1201         57
  56.1386         54
  56.1572         58
  56.1758         62
  56.1944         63
  56.2129         62
  56.2315         77
  56.2501         64
  56.2687         52
  56.2872         63
  56.3058         62
  56.3244         61
  56.3430         60
  56.3615         68
  56.3801         64
  56.3987         45
  56.4173         58
  56.4358         55
  56.4544         63
  56.4730         72
  56.4916         53
  56.5101         56
  56.5287         53
  56.5473         64
  56.5659         62
  56.5844         58
  56.6030         71
  56.6216         53
  56.6402         62
  56.6587         74
  56.6773         59
  56.6959         58
  56.7145         56
  56.7330         59
  56.7516         66
  56.7702         53
  56.7888         57
  56.8073         64
  56.8259         47
  56.8445         55
  56.8631         53
  56.8817         57
  56.9002         47
  56.9188         37
  56.9374         51
  56.9560         51
  56.9745         55
  56.9931         60
  57.0117         54
  57.0303         55
  57.0488         76
  57.0674         65
  57.0860         64
  57.1046         47
  57.1231         56
  57.1417         62
  57.1603         50
  57.1789         56
  57.1974         50
  57.2160         55
  57.2346         42
  57.2532         68
  57.2717         42
  57.2903         52
  57.3089         51
  57.3275         51
  57.3460         58
  57.3646         58
  57.3832         55
  57.4018         58
  57.4203         48
  57.4389         73
  57.4575         74
  57.4761         55
  57.4946         62
  57.5132         38
  57.5318         50
  57.5504         60
  57.5689         61
  57.5875         63
  57.6061         46
  57.6247         67
  57.6433         59
  57.6618         42
  57.6804         53
  57.6990         51
  57.7176         62
  57.7361         57
  57.7547         61
  57.7733         53
  57.7919         48
  57.8104         46
  57.8290         59
  57.8476         49
  57.8662         43
  57.8847         50
  57.9033         50
  57.9219         59
  57.9405         59
  57.9590         64
  57.9776         63
  57.9962         63
  58.0148         53
  58.0333         66
  58.0519         59
  58.0705         70
  58.0891         31
  58.1076         46
  58.1262         48
  58.1448         46
  58.1634         57
  58.1819         57
  58.2005         65
  58.2191         40
  58.2377         61
  58.2562         47
  58.2748         64
  58.2934         61
  58.3120         45
  58.3305         56
  58.3491         54
  58.3677         71
  58.3863         50
  58.4049         48
  58.4234         54
  58.4420         59
  58.4606         50
  58.4792         62
  58.4977         64
  58.5163         64
  58.5349         71
  58.5535         56
  58.5720         50
  58.5906         52
  58.6092         47
  58.6278         55
  58.6463         52
  58.6649         59
  58.6835         55
  58.7021         69
  58.7206         50
  58.7392         50
  58.7578         57
  58.7764         73
  58.7949         60
  58.8135         58
  58.8321         52
  58.8507         58
  58.8692         70
  58.8878         52
  58.9064         55
  58.9250         64
  58.9435         48
  58.9621         50
  58.9807         49
  58.9993         50
  59.0178         53
  59.0364         62
  59.0550         47
  59.0736         56
  59.0921         54
  59.1107         58
  59.1293         62
  59.1479         63
  59.1664         44
  59.1850         60
  59.2036         54
  59.2222         55
  59.2408         59
  59.2593         54
  59.2779         47
  59.2965         59
  59.3151         65
  59.3336         58
  59.3522         61
  59.3708         54
  59.3894         60
  59.4079         62
  59.4265         43
  59.4451         52
  59.4637         55
  59.4822         49
  59.5008         56
  59.5194         55
  59.5380         46
  59.5565         59
  59.5751         73
  59.5937         63
  59.6123         44
  59.6308         59
  59.6494         75
  59.6680         46
  59.6866         53
  59.7051         55
  59.7237         57
  59.7423         50
  59.7609         59
  59.7794         73
  59.7980         62
  59.8166         56
  59.8352         54
  59.8537         57
  59.8723         56
  59.8909         54
  59.9095         58
  59.9280         54
  59.9466         61
  59.9652         51
  59.9838         54
  60.0024         60
