; (content of file Y:\Sam\Apurva-07-20-2022\puck4\ML_20220718_55_SJD_4_LaB6-4min.raw)
_FILEVERSION = 3
_SAMPLE = ML_20220718_55_SJD_4_LaB6-4min
_+SAMPLE = 
_SITE = USA
_USER = Administrator
_GONIOMETER_CODE = 20
; Goniometer : D8 theta/2theta, stage : Unknown
_ATTACHMENTS_CODE = 0
_GONIOMETER_RADIUS = 200.5
_FIXED_DIVSLIT = 0.6
_FIXED_SAMPLESLIT = 0
_SOLLER_SLITS = 2
_FIXED_DETSLIT = 9.55
_MONOCHROMATOR = 0
; Incident beam monochromator : None
_SOLLER_SLITS_2 = N
_THIN_FILM = N
_BETA_FILTER = Y
_FIXED_ANTISLIT = 5.89
_ANALYZER_CODE = 0
; Received beam analyzer : None
_DATEMEASURED = "26-Jul-2022 14:23:10"
_WL_UNIT = A
_WL1 = 1.5406
_WL2 = 1.54439
_WL3 = 1.39222
_WLRATIO = 0.5
_ANODE = Cu
_V4_INF_CREATOR = XRDWizard
_V4_INF_CREATOR_VERSION = V2.9.0.22
_V4_INF_WIZARD_VERSION = V2.9.0.22
_V4_INF_WIZARD_ADDINS = V2.9.0.22
_V4_INF_WIZARD_DOCTYPE = XRD
_V4_INF_OSUSER = McQueenLab
_V4_INF_USER = Administrator
_V4_INF_SITE = USA
_V4_INF_SAMPLEID = ML_20220718_55_SJD_4_LaB6-4min

; Data for range 1
_DRIVE = COUPLED
_STEPTIME = 11.28
_STEPSIZE = 0.0185756
_STEPMODE = C
_START = 5
_THETA = 2.5
_2THETA = 5
_KHI = 0
_PHI = 0
_X = 0
_Y = 0
_Z = 0
_DETECTOR = 5
; Detector type : Unknown
_DETECTORSLIT = unkn
_AUX1 = 0
_AUX2 = 0
_AUX3 = 0
_TIMESTARTED = 15
_TEMP_RATE = -1
_TEMP_DELAY = -1
_KV = 40
_MA = 40
_RANGE_WL = 1.5406
_3DPLANE = 0
_V4_ADDITIONALDETECTOR = 257
_V4_PSD2THETA = 3.3876
_V4_PSDCHANNEL1 = 0
_V4_PSDAPERTURE = 12.68
_V4_PSDTYPE = 5
_V4_PSDFIXED = 0
_V4_COUNTERS_MASK = 4096
_V4_DRIVES_MASK = 0
_V4_ENCODERS_MASK = 0
_2THETACOUNTS = 1
; 2THETA  PSD
   5.0000        225
   5.0186        270
   5.0372        247
   5.0557        231
   5.0743        232
   5.0929        278
   5.1115        238
   5.1300        262
   5.1486        222
   5.1672        249
   5.1858        258
   5.2043        245
   5.2229        230
   5.2415        225
   5.2601        260
   5.2786        228
   5.2972        245
   5.3158        250
   5.3344        260
   5.3529        220
   5.3715        219
   5.3901        231
   5.4087        251
   5.4272        219
   5.4458        236
   5.4644        243
   5.4830        198
   5.5015        223
   5.5201        234
   5.5387        199
   5.5573        213
   5.5758        240
   5.5944        235
   5.6130        202
   5.6316        222
   5.6501        222
   5.6687        193
   5.6873        202
   5.7059        228
   5.7244        211
   5.7430        203
   5.7616        228
   5.7802        210
   5.7988        197
   5.8173        197
   5.8359        209
   5.8545        180
   5.8731        199
   5.8916        204
   5.9102        197
   5.9288        184
   5.9474        207
   5.9659        217
   5.9845        195
   6.0031        192
   6.0217        212
   6.0402        191
   6.0588        210
   6.0774        181
   6.0960        171
   6.1145        199
   6.1331        187
   6.1517        220
   6.1703        192
   6.1888        194
   6.2074        179
   6.2260        186
   6.2446        199
   6.2631        192
   6.2817        187
   6.3003        211
   6.3189        180
   6.3374        174
   6.3560        180
   6.3746        179
   6.3932        164
   6.4117        170
   6.4303        186
   6.4489        185
   6.4675        162
   6.4860        154
   6.5046        179
   6.5232        181
   6.5418        157
   6.5604        192
   6.5789        155
   6.5975        189
   6.6161        173
   6.6347        171
   6.6532        177
   6.6718        183
   6.6904        192
   6.7090        166
   6.7275        169
   6.7461        175
   6.7647        165
   6.7833        165
   6.8018        150
   6.8204        174
   6.8390        166
   6.8576        158
   6.8761        179
   6.8947        167
   6.9133        166
   6.9319        163
   6.9504        173
   6.9690        154
   6.9876        170
   7.0062        152
   7.0247        193
   7.0433        172
   7.0619        146
   7.0805        174
   7.0990        161
   7.1176        154
   7.1362        152
   7.1548        155
   7.1733        161
   7.1919        162
   7.2105        156
   7.2291        170
   7.2476        166
   7.2662        131
   7.2848        158
   7.3034        152
   7.3220        157
   7.3405        162
   7.3591        151
   7.3777        176
   7.3963        152
   7.4148        169
   7.4334        167
   7.4520        164
   7.4706        159
   7.4891        153
   7.5077        180
   7.5263        146
   7.5449        170
   7.5634        155
   7.5820        161
   7.6006        177
   7.6192        159
   7.6377        183
   7.6563        181
   7.6749        153
   7.6935        150
   7.7120        191
   7.7306        158
   7.7492        170
   7.7678        150
   7.7863        169
   7.8049        176
   7.8235        164
   7.8421        204
   7.8606        188
   7.8792        160
   7.8978        171
   7.9164        188
   7.9349        198
   7.9535        184
   7.9721        174
   7.9907        170
   8.0092        234
   8.0278        185
   8.0464        211
   8.0650        171
   8.0835        187
   8.1021        193
   8.1207        211
   8.1393        194
   8.1579        183
   8.1764        186
   8.1950        177
   8.2136        180
   8.2322        210
   8.2507        190
   8.2693        183
   8.2879        191
   8.3065        211
   8.3250        205
   8.3436        192
   8.3622        215
   8.3808        186
   8.3993        185
   8.4179        180
   8.4365        185
   8.4551        214
   8.4736        200
   8.4922        213
   8.5108        197
   8.5294        183
   8.5479        194
   8.5665        212
   8.5851        220
   8.6037        192
   8.6222        191
   8.6408        199
   8.6594        216
   8.6780        196
   8.6965        209
   8.7151        195
   8.7337        202
   8.7523        203
   8.7708        213
   8.7894        209
   8.8080        216
   8.8266        184
   8.8451        201
   8.8637        204
   8.8823        206
   8.9009        226
   8.9195        220
   8.9380        213
   8.9566        192
   8.9752        214
   8.9938        200
   9.0123        191
   9.0309        196
   9.0495        202
   9.0681        206
   9.0866        206
   9.1052        237
   9.1238        235
   9.1424        204
   9.1609        203
   9.1795        206
   9.1981        252
   9.2167        220
   9.2352        235
   9.2538        220
   9.2724        227
   9.2910        180
   9.3095        208
   9.3281        215
   9.3467        229
   9.3653        219
   9.3838        209
   9.4024        215
   9.4210        217
   9.4396        200
   9.4581        224
   9.4767        198
   9.4953        226
   9.5139        237
   9.5324        215
   9.5510        239
   9.5696        227
   9.5882        203
   9.6067        226
   9.6253        213
   9.6439        225
   9.6625        221
   9.6811        211
   9.6996        218
   9.7182        233
   9.7368        221
   9.7554        237
   9.7739        232
   9.7925        229
   9.8111        227
   9.8297        244
   9.8482        233
   9.8668        253
   9.8854        190
   9.9040        270
   9.9225        218
   9.9411        210
   9.9597        246
   9.9783        248
   9.9968        261
  10.0154        227
  10.0340        241
  10.0526        236
  10.0711        233
  10.0897        232
  10.1083        259
  10.1269        263
  10.1454        219
  10.1640        227
  10.1826        262
  10.2012        231
  10.2197        256
  10.2383        232
  10.2569        234
  10.2755        224
  10.2940        210
  10.3126        244
  10.3312        243
  10.3498        239
  10.3683        225
  10.3869        250
  10.4055        260
  10.4241        246
  10.4427        257
  10.4612        242
  10.4798        209
  10.4984        231
  10.5170        234
  10.5355        267
  10.5541        234
  10.5727        255
  10.5913        245
  10.6098        256
  10.6284        253
  10.6470        230
  10.6656        221
  10.6841        225
  10.7027        252
  10.7213        260
  10.7399        236
  10.7584        241
  10.7770        246
  10.7956        253
  10.8142        233
  10.8327        203
  10.8513        243
  10.8699        255
  10.8885        244
  10.9070        246
  10.9256        246
  10.9442        231
  10.9628        238
  10.9813        233
  10.9999        259
  11.0185        249
  11.0371        206
  11.0556        256
  11.0742        249
  11.0928        231
  11.1114        238
  11.1299        236
  11.1485        222
  11.1671        232
  11.1857        215
  11.2043        258
  11.2228        222
  11.2414        263
  11.2600        246
  11.2786        227
  11.2971        240
  11.3157        246
  11.3343        221
  11.3529        221
  11.3714        245
  11.3900        243
  11.4086        229
  11.4272        235
  11.4457        197
  11.4643        229
  11.4829        229
  11.5015        230
  11.5200        237
  11.5386        217
  11.5572        243
  11.5758        240
  11.5943        250
  11.6129        240
  11.6315        234
  11.6501        211
  11.6686        232
  11.6872        238
  11.7058        229
  11.7244        266
  11.7429        221
  11.7615        232
  11.7801        207
  11.7987        220
  11.8172        225
  11.8358        218
  11.8544        229
  11.8730        229
  11.8915        244
  11.9101        230
  11.9287        249
  11.9473        245
  11.9659        217
  11.9844        203
  12.0030        245
  12.0216        242
  12.0402        225
  12.0587        243
  12.0773        227
  12.0959        242
  12.1145        232
  12.1330        221
  12.1516        233
  12.1702        216
  12.1888        203
  12.2073        211
  12.2259        209
  12.2445        237
  12.2631        200
  12.2816        221
  12.3002        227
  12.3188        235
  12.3374        215
  12.3559        247
  12.3745        212
  12.3931        226
  12.4117        215
  12.4302        217
  12.4488        209
  12.4674        244
  12.4860        223
  12.5045        226
  12.5231        224
  12.5417        194
  12.5603        208
  12.5788        202
  12.5974        223
  12.6160        217
  12.6346        200
  12.6531        223
  12.6717        207
  12.6903        240
  12.7089        221
  12.7274        198
  12.7460        218
  12.7646        219
  12.7832        207
  12.8018        192
  12.8203        222
  12.8389        222
  12.8575        192
  12.8761        216
  12.8946        230
  12.9132        196
  12.9318        210
  12.9504        207
  12.9689        220
  12.9875        207
  13.0061        195
  13.0247        199
  13.0432        196
  13.0618        217
  13.0804        213
  13.0990        220
  13.1175        210
  13.1361        216
  13.1547        197
  13.1733        195
  13.1918        210
  13.2104        172
  13.2290        200
  13.2476        225
  13.2661        183
  13.2847        215
  13.3033        200
  13.3219        206
  13.3404        176
  13.3590        195
  13.3776        208
  13.3962        189
  13.4147        202
  13.4333        193
  13.4519        189
  13.4705        195
  13.4890        188
  13.5076        194
  13.5262        204
  13.5448        197
  13.5634        192
  13.5819        216
  13.6005        208
  13.6191        204
  13.6377        161
  13.6562        216
  13.6748        196
  13.6934        191
  13.7120        166
  13.7305        185
  13.7491        172
  13.7677        187
  13.7863        168
  13.8048        195
  13.8234        169
  13.8420        174
  13.8606        158
  13.8791        172
  13.8977        193
  13.9163        196
  13.9349        210
  13.9534        184
  13.9720        174
  13.9906        166
  14.0092        198
  14.0277        179
  14.0463        172
  14.0649        194
  14.0835        193
  14.1020        169
  14.1206        177
  14.1392        200
  14.1578        205
  14.1763        152
  14.1949        182
  14.2135        177
  14.2321        176
  14.2506        187
  14.2692        179
  14.2878        184
  14.3064        176
  14.3250        193
  14.3435        174
  14.3621        171
  14.3807        183
  14.3993        174
  14.4178        176
  14.4364        174
  14.4550        178
  14.4736        166
  14.4921        199
  14.5107        183
  14.5293        184
  14.5479        181
  14.5664        167
  14.5850        186
  14.6036        179
  14.6222        188
  14.6407        196
  14.6593        185
  14.6779        158
  14.6965        144
  14.7150        184
  14.7336        193
  14.7522        173
  14.7708        155
  14.7893        179
  14.8079        175
  14.8265        192
  14.8451        185
  14.8636        184
  14.8822        174
  14.9008        163
  14.9194        176
  14.9379        145
  14.9565        152
  14.9751        165
  14.9937        160
  15.0122        176
  15.0308        168
  15.0494        157
  15.0680        152
  15.0866        173
  15.1051        188
  15.1237        152
  15.1423        173
  15.1609        189
  15.1794        154
  15.1980        171
  15.2166        169
  15.2352        161
  15.2537        165
  15.2723        169
  15.2909        160
  15.3095        181
  15.3280        175
  15.3466        138
  15.3652        154
  15.3838        159
  15.4023        182
  15.4209        179
  15.4395        192
  15.4581        167
  15.4766        165
  15.4952        169
  15.5138        150
  15.5324        161
  15.5509        163
  15.5695        159
  15.5881        157
  15.6067        173
  15.6252        182
  15.6438        154
  15.6624        140
  15.6810        170
  15.6995        176
  15.7181        162
  15.7367        153
  15.7553        162
  15.7738        159
  15.7924        169
  15.8110        162
  15.8296        147
  15.8482        144
  15.8667        160
  15.8853        166
  15.9039        175
  15.9225        164
  15.9410        146
  15.9596        151
  15.9782        162
  15.9968        162
  16.0153        170
  16.0339        150
  16.0525        147
  16.0711        154
  16.0896        169
  16.1082        156
  16.1268        155
  16.1454        164
  16.1639        171
  16.1825        160
  16.2011        164
  16.2197        159
  16.2382        179
  16.2568        163
  16.2754        151
  16.2940        193
  16.3125        167
  16.3311        168
  16.3497        171
  16.3683        181
  16.3868        177
  16.4054        161
  16.4240        144
  16.4426        139
  16.4611        160
  16.4797        156
  16.4983        177
  16.5169        172
  16.5354        146
  16.5540        157
  16.5726        146
  16.5912        172
  16.6097        166
  16.6283        175
  16.6469        158
  16.6655        153
  16.6841        158
  16.7026        167
  16.7212        173
  16.7398        164
  16.7584        162
  16.7769        170
  16.7955        161
  16.8141        180
  16.8327        150
  16.8512        180
  16.8698        126
  16.8884        185
  16.9070        182
  16.9255        184
  16.9441        179
  16.9627        168
  16.9813        155
  16.9998        172
  17.0184        152
  17.0370        151
  17.0556        156
  17.0741        160
  17.0927        126
  17.1113        159
  17.1299        162
  17.1484        169
  17.1670        173
  17.1856        168
  17.2042        164
  17.2227        169
  17.2413        157
  17.2599        171
  17.2785        159
  17.2970        170
  17.3156        157
  17.3342        163
  17.3528        154
  17.3713        175
  17.3899        170
  17.4085        153
  17.4271        167
  17.4457        134
  17.4642        167
  17.4828        183
  17.5014        153
  17.5200        152
  17.5385        148
  17.5571        183
  17.5757        179
  17.5943        146
  17.6128        174
  17.6314        148
  17.6500        152
  17.6686        159
  17.6871        148
  17.7057        171
  17.7243        167
  17.7429        162
  17.7614        152
  17.7800        148
  17.7986        176
  17.8172        154
  17.8357        183
  17.8543        164
  17.8729        165
  17.8915        169
  17.9100        146
  17.9286        178
  17.9472        148
  17.9658        193
  17.9843        174
  18.0029        197
  18.0215        169
  18.0401        151
  18.0586        170
  18.0772        143
  18.0958        156
  18.1144        157
  18.1329        181
  18.1515        175
  18.1701        143
  18.1887        165
  18.2073        166
  18.2258        172
  18.2444        164
  18.2630        167
  18.2816        180
  18.3001        168
  18.3187        170
  18.3373        185
  18.3559        149
  18.3744        174
  18.3930        165
  18.4116        167
  18.4302        196
  18.4487        183
  18.4673        171
  18.4859        152
  18.5045        170
  18.5230        169
  18.5416        173
  18.5602        190
  18.5788        160
  18.5973        169
  18.6159        174
  18.6345        180
  18.6531        160
  18.6716        148
  18.6902        165
  18.7088        141
  18.7274        169
  18.7459        164
  18.7645        183
  18.7831        174
  18.8017        174
  18.8202        173
  18.8388        168
  18.8574        150
  18.8760        154
  18.8945        149
  18.9131        161
  18.9317        162
  18.9503        183
  18.9689        190
  18.9874        175
  19.0060        152
  19.0246        159
  19.0432        183
  19.0617        182
  19.0803        167
  19.0989        163
  19.1175        170
  19.1360        180
  19.1546        164
  19.1732        169
  19.1918        171
  19.2103        192
  19.2289        176
  19.2475        172
  19.2661        180
  19.2846        181
  19.3032        183
  19.3218        169
  19.3404        174
  19.3589        166
  19.3775        157
  19.3961        171
  19.4147        187
  19.4332        180
  19.4518        188
  19.4704        174
  19.4890        188
  19.5075        164
  19.5261        172
  19.5447        179
  19.5633        194
  19.5818        177
  19.6004        166
  19.6190        169
  19.6376        178
  19.6561        159
  19.6747        174
  19.6933        198
  19.7119        179
  19.7305        179
  19.7490        181
  19.7676        181
  19.7862        192
  19.8048        197
  19.8233        173
  19.8419        160
  19.8605        181
  19.8791        185
  19.8976        165
  19.9162        204
  19.9348        192
  19.9534        161
  19.9719        197
  19.9905        172
  20.0091        182
  20.0277        168
  20.0462        173
  20.0648        176
  20.0834        150
  20.1020        183
  20.1205        175
  20.1391        189
  20.1577        185
  20.1763        192
  20.1948        194
  20.2134        164
  20.2320        192
  20.2506        200
  20.2691        177
  20.2877        192
  20.3063        183
  20.3249        193
  20.3434        176
  20.3620        199
  20.3806        205
  20.3992        197
  20.4177        172
  20.4363        185
  20.4549        182
  20.4735        194
  20.4921        178
  20.5106        176
  20.5292        191
  20.5478        176
  20.5664        194
  20.5849        190
  20.6035        187
  20.6221        188
  20.6407        167
  20.6592        199
  20.6778        201
  20.6964        217
  20.7150        186
  20.7335        169
  20.7521        197
  20.7707        169
  20.7893        208
  20.8078        179
  20.8264        183
  20.8450        190
  20.8636        194
  20.8821        169
  20.9007        174
  20.9193        181
  20.9379        197
  20.9564        186
  20.9750        197
  20.9936        183
  21.0122        194
  21.0307        211
  21.0493        178
  21.0679        189
  21.0865        186
  21.1050        237
  21.1236        213
  21.1422        201
  21.1608        251
  21.1793        239
  21.1979        285
  21.2165        322
  21.2351        334
  21.2537        324
  21.2722        298
  21.2908        303
  21.3094        302
  21.3280        338
  21.3465        452
  21.3651        527
  21.3837        422
  21.4023        375
  21.4208        404
  21.4394        298
  21.4580        234
  21.4766        214
  21.4951        185
  21.5137        219
  21.5323        189
  21.5509        179
  21.5694        199
  21.5880        186
  21.6066        187
  21.6252        173
  21.6437        190
  21.6623        185
  21.6809        202
  21.6995        185
  21.7180        182
  21.7366        192
  21.7552        195
  21.7738        219
  21.7923        191
  21.8109        196
  21.8295        191
  21.8481        211
  21.8666        200
  21.8852        195
  21.9038        190
  21.9224        204
  21.9409        204
  21.9595        183
  21.9781        209
  21.9967        171
  22.0152        208
  22.0338        212
  22.0524        185
  22.0710        167
  22.0896        189
  22.1081        208
  22.1267        175
  22.1453        204
  22.1639        215
  22.1824        181
  22.2010        180
  22.2196        198
  22.2382        208
  22.2567        173
  22.2753        171
  22.2939        199
  22.3125        195
  22.3310        175
  22.3496        215
  22.3682        208
  22.3868        190
  22.4053        211
  22.4239        187
  22.4425        204
  22.4611        161
  22.4796        185
  22.4982        196
  22.5168        209
  22.5354        174
  22.5539        216
  22.5725        194
  22.5911        193
  22.6097        189
  22.6282        182
  22.6468        173
  22.6654        189
  22.6840        190
  22.7025        206
  22.7211        221
  22.7397        184
  22.7583        176
  22.7768        200
  22.7954        202
  22.8140        198
  22.8326        193
  22.8512        206
  22.8697        216
  22.8883        186
  22.9069        186
  22.9255        187
  22.9440        204
  22.9626        214
  22.9812        199
  22.9998        175
  23.0183        217
  23.0369        194
  23.0555        207
  23.0741        214
  23.0926        191
  23.1112        212
  23.1298        197
  23.1484        193
  23.1669        192
  23.1855        216
  23.2041        196
  23.2227        193
  23.2412        203
  23.2598        208
  23.2784        211
  23.2970        204
  23.3155        183
  23.3341        180
  23.3527        181
  23.3713        196
  23.3898        190
  23.4084        212
  23.4270        214
  23.4456        221
  23.4641        215
  23.4827        178
  23.5013        186
  23.5199        206
  23.5384        228
  23.5570        222
  23.5756        225
  23.5942        176
  23.6128        193
  23.6313        193
  23.6499        188
  23.6685        196
  23.6871        240
  23.7056        222
  23.7242        188
  23.7428        202
  23.7614        192
  23.7799        206
  23.7985        208
  23.8171        188
  23.8357        185
  23.8542        187
  23.8728        226
  23.8914        209
  23.9100        224
  23.9285        218
  23.9471        228
  23.9657        201
  23.9843        206
  24.0028        207
  24.0214        201
  24.0400        187
  24.0586        201
  24.0771        186
  24.0957        221
  24.1143        179
  24.1329        215
  24.1514        189
  24.1700        210
  24.1886        208
  24.2072        237
  24.2257        201
  24.2443        233
  24.2629        226
  24.2815        220
  24.3000        221
  24.3186        196
  24.3372        239
  24.3558        220
  24.3744        202
  24.3929        231
  24.4115        205
  24.4301        194
  24.4487        203
  24.4672        191
  24.4858        200
  24.5044        203
  24.5230        207
  24.5415        187
  24.5601        205
  24.5787        223
  24.5973        223
  24.6158        209
  24.6344        188
  24.6530        226
  24.6716        217
  24.6901        209
  24.7087        192
  24.7273        186
  24.7459        216
  24.7644        217
  24.7830        220
  24.8016        213
  24.8202        183
  24.8387        212
  24.8573        223
  24.8759        190
  24.8945        191
  24.9130        198
  24.9316        201
  24.9502        218
  24.9688        195
  24.9873        209
  25.0059        191
  25.0245        219
  25.0431        187
  25.0616        203
  25.0802        191
  25.0988        181
  25.1174        194
  25.1360        226
  25.1545        192
  25.1731        194
  25.1917        184
  25.2103        215
  25.2288        192
  25.2474        207
  25.2660        170
  25.2846        217
  25.3031        185
  25.3217        202
  25.3403        211
  25.3589        206
  25.3774        195
  25.3960        196
  25.4146        173
  25.4332        181
  25.4517        184
  25.4703        208
  25.4889        182
  25.5075        183
  25.5260        193
  25.5446        197
  25.5632        190
  25.5818        179
  25.6003        195
  25.6189        191
  25.6375        182
  25.6561        195
  25.6746        190
  25.6932        174
  25.7118        190
  25.7304        189
  25.7489        183
  25.7675        188
  25.7861        222
  25.8047        186
  25.8232        201
  25.8418        203
  25.8604        213
  25.8790        186
  25.8976        212
  25.9161        193
  25.9347        173
  25.9533        197
  25.9719        177
  25.9904        198
  26.0090        205
  26.0276        206
  26.0462        188
  26.0647        208
  26.0833        172
  26.1019        216
  26.1205        181
  26.1390        188
  26.1576        170
  26.1762        172
  26.1948        200
  26.2133        203
  26.2319        174
  26.2505        194
  26.2691        197
  26.2876        202
  26.3062        167
  26.3248        188
  26.3434        203
  26.3619        209
  26.3805        178
  26.3991        203
  26.4177        183
  26.4362        188
  26.4548        185
  26.4734        168
  26.4920        178
  26.5105        178
  26.5291        184
  26.5477        176
  26.5663        170
  26.5848        158
  26.6034        159
  26.6220        184
  26.6406        173
  26.6591        193
  26.6777        183
  26.6963        166
  26.7149        183
  26.7335        178
  26.7520        178
  26.7706        196
  26.7892        181
  26.8078        214
  26.8263        188
  26.8449        168
  26.8635        165
  26.8821        203
  26.9006        204
  26.9192        199
  26.9378        183
  26.9564        200
  26.9749        202
  26.9935        188
  27.0121        176
  27.0307        200
  27.0492        183
  27.0678        192
  27.0864        201
  27.1050        176
  27.1235        212
  27.1421        202
  27.1607        218
  27.1793        222
  27.1978        247
  27.2164        228
  27.2350        210
  27.2536        227
  27.2721        211
  27.2907        198
  27.3093        205
  27.3279        207
  27.3464        219
  27.3650        199
  27.3836        179
  27.4022        183
  27.4207        186
  27.4393        175
  27.4579        208
  27.4765        183
  27.4951        202
  27.5136        196
  27.5322        184
  27.5508        184
  27.5694        189
  27.5879        170
  27.6065        183
  27.6251        185
  27.6437        178
  27.6622        179
  27.6808        177
  27.6994        184
  27.7180        195
  27.7365        169
  27.7551        165
  27.7737        173
  27.7923        162
  27.8108        176
  27.8294        167
  27.8480        176
  27.8666        168
  27.8851        173
  27.9037        169
  27.9223        174
  27.9409        182
  27.9594        195
  27.9780        192
  27.9966        166
  28.0152        165
  28.0337        167
  28.0523        153
  28.0709        158
  28.0895        165
  28.1080        181
  28.1266        180
  28.1452        167
  28.1638        157
  28.1823        159
  28.2009        182
  28.2195        183
  28.2381        143
  28.2567        176
  28.2752        176
  28.2938        180
  28.3124        182
  28.3310        185
  28.3495        182
  28.3681        199
  28.3867        209
  28.4053        148
  28.4238        164
  28.4424        172
  28.4610        172
  28.4796        143
  28.4981        164
  28.5167        165
  28.5353        140
  28.5539        149
  28.5724        152
  28.5910        146
  28.6096        181
  28.6282        161
  28.6467        158
  28.6653        188
  28.6839        170
  28.7025        183
  28.7210        152
  28.7396        179
  28.7582        178
  28.7768        177
  28.7953        178
  28.8139        156
  28.8325        162
  28.8511        182
  28.8696        177
  28.8882        164
  28.9068        176
  28.9254        163
  28.9439        182
  28.9625        169
  28.9811        173
  28.9997        168
  29.0183        149
  29.0368        161
  29.0554        171
  29.0740        153
  29.0926        162
  29.1111        152
  29.1297        172
  29.1483        164
  29.1669        152
  29.1854        157
  29.2040        171
  29.2226        123
  29.2412        174
  29.2597        178
  29.2783        164
  29.2969        187
  29.3155        152
  29.3340        179
  29.3526        172
  29.3712        173
  29.3898        145
  29.4083        155
  29.4269        150
  29.4455        159
  29.4641        165
  29.4826        195
  29.5012        169
  29.5198        175
  29.5384        141
  29.5569        162
  29.5755        151
  29.5941        152
  29.6127        170
  29.6312        165
  29.6498        156
  29.6684        162
  29.6870        163
  29.7055        158
  29.7241        153
  29.7427        146
  29.7613        180
  29.7799        143
  29.7984        176
  29.8170        159
  29.8356        160
  29.8542        165
  29.8727        152
  29.8913        144
  29.9099        175
  29.9285        155
  29.9470        147
  29.9656        152
  29.9842        172
  30.0028        131
  30.0213        156
  30.0399        148
  30.0585        163
  30.0771        160
  30.0956        165
  30.1142        155
  30.1328        159
  30.1514        146
  30.1699        166
  30.1885        174
  30.2071        154
  30.2257        168
  30.2442        157
  30.2628        189
  30.2814        172
  30.3000        183
  30.3185        199
  30.3371        191
  30.3557        238
  30.3743        307
  30.3928        338
  30.4114        282
  30.4300        234
  30.4486        216
  30.4671        290
  30.4857        222
  30.5043        192
  30.5229        160
  30.5415        168
  30.5600        174
  30.5786        172
  30.5972        149
  30.6158        158
  30.6343        172
  30.6529        157
  30.6715        146
  30.6901        167
  30.7086        153
  30.7272        148
  30.7458        141
  30.7644        142
  30.7829        141
  30.8015        154
  30.8201        154
  30.8387        145
  30.8572        143
  30.8758        126
  30.8944        143
  30.9130        156
  30.9315        135
  30.9501        145
  30.9687        134
  30.9873        139
  31.0058        146
  31.0244        153
  31.0430        159
  31.0616        156
  31.0801        135
  31.0987        158
  31.1173        143
  31.1359        145
  31.1544        161
  31.1730        151
  31.1916        157
  31.2102        154
  31.2287        152
  31.2473        149
  31.2659        140
  31.2845        139
  31.3030        130
  31.3216        131
  31.3402        148
  31.3588        134
  31.3774        144
  31.3959        137
  31.4145        131
  31.4331        130
  31.4517        133
  31.4702        133
  31.4888        135
  31.5074        170
  31.5260        144
  31.5445        140
  31.5631        134
  31.5817        142
  31.6003        142
  31.6188        136
  31.6374        137
  31.6560        146
  31.6746        119
  31.6931        144
  31.7117        129
  31.7303        127
  31.7489        117
  31.7674        125
  31.7860        138
  31.8046        141
  31.8232        143
  31.8417        122
  31.8603        129
  31.8789        134
  31.8975        143
  31.9160        139
  31.9346        128
  31.9532        142
  31.9718        142
  31.9903        125
  32.0089        146
  32.0275        131
  32.0461        142
  32.0646        125
  32.0832        119
  32.1018        132
  32.1204        123
  32.1390        122
  32.1575        139
  32.1761        138
  32.1947        126
  32.2133        117
  32.2318        126
  32.2504        131
  32.2690        124
  32.2876        127
  32.3061        123
  32.3247        129
  32.3433        140
  32.3619        148
  32.3804        142
  32.3990        141
  32.4176        138
  32.4362        149
  32.4547        138
  32.4733        147
  32.4919        184
  32.5105        155
  32.5290        142
  32.5476        160
  32.5662        128
  32.5848        163
  32.6033        158
  32.6219        134
  32.6405        123
  32.6591        135
  32.6776        113
  32.6962        148
  32.7148        134
  32.7334        114
  32.7519        132
  32.7705        127
  32.7891        119
  32.8077        131
  32.8262        113
  32.8448        119
  32.8634        121
  32.8820        121
  32.9006        148
  32.9191        142
  32.9377        101
  32.9563        124
  32.9749        122
  32.9934        135
  33.0120        144
  33.0306        120
  33.0492        110
  33.0677        130
  33.0863        105
  33.1049        137
  33.1235        122
  33.1420        132
  33.1606        113
  33.1792        115
  33.1978        119
  33.2163        130
  33.2349        118
  33.2535        152
  33.2721        138
  33.2906        109
  33.3092        122
  33.3278        129
  33.3464        125
  33.3649        120
  33.3835        116
  33.4021        128
  33.4207        131
  33.4392        116
  33.4578        101
  33.4764        109
  33.4950        134
  33.5135        129
  33.5321        147
  33.5507        107
  33.5693        114
  33.5878        102
  33.6064        144
  33.6250        127
  33.6436        116
  33.6622        119
  33.6807        102
  33.6993        110
  33.7179        110
  33.7365        113
  33.7550        130
  33.7736        110
  33.7922        134
  33.8108        149
  33.8293        116
  33.8479        120
  33.8665        131
  33.8851        110
  33.9036        115
  33.9222        109
  33.9408        119
  33.9594        105
  33.9779        110
  33.9965        122
  34.0151        118
  34.0337        115
  34.0522        101
  34.0708        102
  34.0894        115
  34.1080        131
  34.1265        112
  34.1451        116
  34.1637        120
  34.1823         98
  34.2008        116
  34.2194        109
  34.2380         95
  34.2566        113
  34.2751        112
  34.2937        102
  34.3123        112
  34.3309        122
  34.3494        128
  34.3680        117
  34.3866        120
  34.4052        121
  34.4238        110
  34.4423        123
  34.4609        118
  34.4795        128
  34.4981        126
  34.5166        101
  34.5352        135
  34.5538        127
  34.5724        142
  34.5909        132
  34.6095        117
  34.6281        147
  34.6467        135
  34.6652        101
  34.6838        127
  34.7024        126
  34.7210        151
  34.7395        173
  34.7581        150
  34.7767        154
  34.7953        161
  34.8138        138
  34.8324        134
  34.8510        131
  34.8696        114
  34.8881        136
  34.9067        125
  34.9253        128
  34.9439        104
  34.9624        105
  34.9810        116
  34.9996        128
  35.0182        129
  35.0367        106
  35.0553         94
  35.0739        112
  35.0925         94
  35.1110        107
  35.1296        102
  35.1482        111
  35.1668        105
  35.1854        101
  35.2039         95
  35.2225        110
  35.2411         88
  35.2597         93
  35.2782         99
  35.2968         83
  35.3154         98
  35.3340        102
  35.3525        123
  35.3711        109
  35.3897        107
  35.4083        109
  35.4268         91
  35.4454        107
  35.4640        111
  35.4826         83
  35.5011        110
  35.5197        101
  35.5383        105
  35.5569         96
  35.5754        102
  35.5940        112
  35.6126        107
  35.6312        108
  35.6497        110
  35.6683        112
  35.6869        114
  35.7055        116
  35.7240        106
  35.7426        100
  35.7612         87
  35.7798         84
  35.7983        102
  35.8169        105
  35.8355         88
  35.8541        110
  35.8726        105
  35.8912        106
  35.9098         95
  35.9284        117
  35.9469         90
  35.9655         97
  35.9841        102
  36.0027        109
  36.0213        103
  36.0398         96
  36.0584         95
  36.0770        110
  36.0956        110
  36.1141        100
  36.1327         91
  36.1513         92
  36.1699        102
  36.1884        110
  36.2070        100
  36.2256         94
  36.2442         92
  36.2627         95
  36.2813         89
  36.2999         98
  36.3185         87
  36.3370         95
  36.3556         86
  36.3742        101
  36.3928         94
  36.4113         95
  36.4299         95
  36.4485         87
  36.4671         98
  36.4856         88
  36.5042        103
  36.5228        106
  36.5414         78
  36.5599         98
  36.5785         89
  36.5971         79
  36.6157        107
  36.6342         98
  36.6528        100
  36.6714         87
  36.6900         81
  36.7085         79
  36.7271        102
  36.7457        110
  36.7643         93
  36.7829        104
  36.8014         86
  36.8200         95
  36.8386         91
  36.8572         97
  36.8757         82
  36.8943         87
  36.9129        103
  36.9315         89
  36.9500         92
  36.9686        101
  36.9872        100
  37.0058         96
  37.0243         87
  37.0429         82
  37.0615         94
  37.0801         87
  37.0986         86
  37.1172         99
  37.1358         85
  37.1544         87
  37.1729         87
  37.1915         83
  37.2101        100
  37.2287        100
  37.2472        101
  37.2658        100
  37.2844        100
  37.3030        105
  37.3215        102
  37.3401         94
  37.3587         88
  37.3773         96
  37.3958        109
  37.4144        126
  37.4330        165
  37.4516        159
  37.4701        119
  37.4887        101
  37.5073        119
  37.5259        131
  37.5445        126
  37.5630        100
  37.5816         93
  37.6002         94
  37.6188        103
  37.6373         82
  37.6559        106
  37.6745         84
  37.6931         95
  37.7116         90
  37.7302         78
  37.7488         85
  37.7674         75
  37.7859         80
  37.8045         63
  37.8231         74
  37.8417         83
  37.8602         92
  37.8788         94
  37.8974         88
  37.9160         83
  37.9345         76
  37.9531         82
  37.9717         72
  37.9903        116
  38.0088         70
  38.0274         95
  38.0460         88
  38.0646         80
  38.0831         81
  38.1017         86
  38.1203         79
  38.1389        102
  38.1574         88
  38.1760         83
  38.1946         95
  38.2132         84
  38.2317         94
  38.2503         85
  38.2689         93
  38.2875        103
  38.3061         59
  38.3246         91
  38.3432         91
  38.3618         86
  38.3804         84
  38.3989         84
  38.4175         89
  38.4361         83
  38.4547         75
  38.4732         77
  38.4918         83
  38.5104        102
  38.5290         87
  38.5475         94
  38.5661        101
  38.5847        102
  38.6033         90
  38.6218         84
  38.6404         85
  38.6590         70
  38.6776         73
  38.6961         60
  38.7147         68
  38.7333         88
  38.7519        103
  38.7704         97
  38.7890         81
  38.8076         76
  38.8262         74
  38.8447         86
  38.8633         78
  38.8819         88
  38.9005         85
  38.9190         77
  38.9376         93
  38.9562         78
  38.9748         79
  38.9933         77
  39.0119         73
  39.0305         84
  39.0491         70
  39.0677         92
  39.0862         91
  39.1048         82
  39.1234         86
  39.1420         87
  39.1605         71
  39.1791         78
  39.1977         95
  39.2163         88
  39.2348         96
  39.2534         71
  39.2720         68
  39.2906         76
  39.3091         72
  39.3277         71
  39.3463         69
  39.3649         80
  39.3834         77
  39.4020         67
  39.4206         70
  39.4392         74
  39.4577         77
  39.4763         77
  39.4949         78
  39.5135         78
  39.5320         88
  39.5506         83
  39.5692         87
  39.5878         86
  39.6063         80
  39.6249         77
  39.6435         81
  39.6621         81
  39.6806         95
  39.6992         75
  39.7178         65
  39.7364         55
  39.7549         81
  39.7735         93
  39.7921         87
  39.8107         83
  39.8293         85
  39.8478         91
  39.8664         84
  39.8850         78
  39.9036         72
  39.9221         76
  39.9407         81
  39.9593         83
  39.9779         81
  39.9964         57
  40.0150         86
  40.0336         82
  40.0522         75
  40.0707         74
  40.0893         95
  40.1079         89
  40.1265         77
  40.1450         71
  40.1636         66
  40.1822         78
  40.2008         69
  40.2193         77
  40.2379         82
  40.2565         76
  40.2751         71
  40.2936         71
  40.3122         60
  40.3308         68
  40.3494         86
  40.3679         68
  40.3865         78
  40.4051         79
  40.4237         70
  40.4422         88
  40.4608         80
  40.4794         82
  40.4980         69
  40.5165         80
  40.5351         81
  40.5537         77
  40.5723         83
  40.5908         92
  40.6094         92
  40.6280         91
  40.6466         89
  40.6652         73
  40.6837         92
  40.7023         72
  40.7209         72
  40.7395         80
  40.7580         68
  40.7766         76
  40.7952         76
  40.8138         86
  40.8323         76
  40.8509         80
  40.8695         65
  40.8881         69
  40.9066         75
  40.9252         64
  40.9438         72
  40.9624         91
  40.9809         94
  40.9995         70
  41.0181         82
  41.0367         75
  41.0552         68
  41.0738         73
  41.0924         77
  41.1110         80
  41.1295         68
  41.1481         72
  41.1667         65
  41.1853         76
  41.2038         83
  41.2224         72
  41.2410         86
  41.2596         79
  41.2781         69
  41.2967         73
  41.3153         64
  41.3339         76
  41.3524         54
  41.3710         70
  41.3896         77
  41.4082         74
  41.4268         69
  41.4453         73
  41.4639         66
  41.4825         75
  41.5011         79
  41.5196         91
  41.5382         59
  41.5568         73
  41.5754         83
  41.5939         76
  41.6125         85
  41.6311         73
  41.6497         76
  41.6682         83
  41.6868         83
  41.7054         72
  41.7240         72
  41.7425         74
  41.7611         73
  41.7797         55
  41.7983         71
  41.8168         79
  41.8354         88
  41.8540         63
  41.8726         61
  41.8911         77
  41.9097         86
  41.9283         82
  41.9469         64
  41.9654         68
  41.9840         85
  42.0026         83
  42.0212         69
  42.0397         76
  42.0583         80
  42.0769         78
  42.0955         64
  42.1140         81
  42.1326         68
  42.1512         88
  42.1698         74
  42.1884         58
  42.2069         78
  42.2255         78
  42.2441         76
  42.2627         92
  42.2812         87
  42.2998         76
  42.3184         83
  42.3370         84
  42.3555         69
  42.3741         83
  42.3927         74
  42.4113         81
  42.4298         74
  42.4484         81
  42.4670         84
  42.4856         77
  42.5041         66
  42.5227         71
  42.5413         79
  42.5599         81
  42.5784         63
  42.5970         73
  42.6156         75
  42.6342         78
  42.6527         91
  42.6713         81
  42.6899         72
  42.7085         80
  42.7270         72
  42.7456         92
  42.7642         98
  42.7828         85
  42.8013         84
  42.8199         80
  42.8385         80
  42.8571         77
  42.8756         87
  42.8942         65
  42.9128         80
  42.9314         80
  42.9500         74
  42.9685         75
  42.9871         72
  43.0057         86
  43.0243         84
  43.0428         90
  43.0614         72
  43.0800         89
  43.0986         86
  43.1171         67
  43.1357         67
  43.1543         83
  43.1729         87
  43.1914         90
  43.2100         71
  43.2286         78
  43.2472         73
  43.2657         80
  43.2843         88
  43.3029         91
  43.3215         82
  43.3400         91
  43.3586         75
  43.3772         88
  43.3958         69
  43.4143         92
  43.4329         78
  43.4515         72
  43.4701         97
  43.4886        102
  43.5072        144
  43.5258        138
  43.5444        101
  43.5629        114
  43.5815         99
  43.6001        109
  43.6187        122
  43.6372        129
  43.6558        103
  43.6744         67
  43.6930         66
  43.7116         76
  43.7301         71
  43.7487         53
  43.7673         72
  43.7859         60
  43.8044         75
  43.8230         80
  43.8416         78
  43.8602         75
  43.8787         74
  43.8973         68
  43.9159         67
  43.9345         55
  43.9530         47
  43.9716         79
  43.9902         66
  44.0088         90
  44.0273         83
  44.0459         69
  44.0645         59
  44.0831         59
  44.1016         81
  44.1202         80
  44.1388         66
  44.1574         76
  44.1759         66
  44.1945         80
  44.2131         78
  44.2317         89
  44.2502         84
  44.2688         78
  44.2874         79
  44.3060         51
  44.3245         70
  44.3431         77
  44.3617         84
  44.3803         83
  44.3988         76
  44.4174         80
  44.4360         91
  44.4546         75
  44.4732         81
  44.4917         62
  44.5103         68
  44.5289         87
  44.5475         76
  44.5660         52
  44.5846         84
  44.6032         83
  44.6218         96
  44.6403         83
  44.6589         78
  44.6775         86
  44.6961         92
  44.7146         69
  44.7332         72
  44.7518         68
  44.7704         83
  44.7889         80
  44.8075         80
  44.8261         68
  44.8447         81
  44.8632         65
  44.8818         79
  44.9004         60
  44.9190         70
  44.9375         76
  44.9561         61
  44.9747         80
  44.9933         77
  45.0118         69
  45.0304         61
  45.0490         72
  45.0676         76
  45.0861         70
  45.1047         84
  45.1233         74
  45.1419         80
  45.1604         76
  45.1790         66
  45.1976         74
  45.2162         53
  45.2347         82
  45.2533         75
  45.2719         55
  45.2905         79
  45.3091         62
  45.3276         69
  45.3462         76
  45.3648         68
  45.3834         66
  45.4019         62
  45.4205         81
  45.4391         58
  45.4577         74
  45.4762         79
  45.4948         77
  45.5134         73
  45.5320         61
  45.5505         65
  45.5691         60
  45.5877         74
  45.6063         64
  45.6248         59
  45.6434         80
  45.6620         63
  45.6806         83
  45.6991         80
  45.7177         74
  45.7363         87
  45.7549         73
  45.7734         79
  45.7920         69
  45.8106         57
  45.8292         75
  45.8477         69
  45.8663         50
  45.8849         85
  45.9035         78
  45.9220         57
  45.9406         65
  45.9592         64
  45.9778         68
  45.9963         75
  46.0149         66
  46.0335         75
  46.0521         73
  46.0707         58
  46.0892         76
  46.1078         70
  46.1264         60
  46.1450         65
  46.1635         77
  46.1821         56
  46.2007         65
  46.2193         71
  46.2378         62
  46.2564         68
  46.2750         72
  46.2936         77
  46.3121         48
  46.3307         61
  46.3493         84
  46.3679         74
  46.3864         76
  46.4050         67
  46.4236         63
  46.4422         74
  46.4607         63
  46.4793         61
  46.4979         58
  46.5165         76
  46.5350         57
  46.5536         63
  46.5722         63
  46.5908         64
  46.6093         90
  46.6279         61
  46.6465         47
  46.6651         64
  46.6836         46
  46.7022         72
  46.7208         61
  46.7394         63
  46.7579         69
  46.7765         67
  46.7951         58
  46.8137         66
  46.8323         59
  46.8508         58
  46.8694         66
  46.8880         72
  46.9066         53
  46.9251         54
  46.9437         59
  46.9623         64
  46.9809         63
  46.9994         49
  47.0180         65
  47.0366         69
  47.0552         70
  47.0737         54
  47.0923         72
  47.1109         53
  47.1295         53
  47.1480         54
  47.1666         65
  47.1852         64
  47.2038         60
  47.2223         66
  47.2409         66
  47.2595         52
  47.2781         53
  47.2966         52
  47.3152         67
  47.3338         57
  47.3524         70
  47.3709         71
  47.3895         47
  47.4081         70
  47.4267         48
  47.4452         68
  47.4638         65
  47.4824         69
  47.5010         53
  47.5195         56
  47.5381         87
  47.5567         62
  47.5753         85
  47.5939         57
  47.6124         74
  47.6310         68
  47.6496         57
  47.6682         69
  47.6867         64
  47.7053         71
  47.7239         64
  47.7425         60
  47.7610         66
  47.7796         70
  47.7982         65
  47.8168         67
  47.8353         65
  47.8539         53
  47.8725         62
  47.8911         64
  47.9096         78
  47.9282         47
  47.9468         66
  47.9654         66
  47.9839         55
  48.0025         51
  48.0211         62
  48.0397         81
  48.0582         63
  48.0768         59
  48.0954         57
  48.1140         65
  48.1325         51
  48.1511         56
  48.1697         77
  48.1883         63
  48.2068         70
  48.2254         68
  48.2440         69
  48.2626         70
  48.2811         54
  48.2997         76
  48.3183         80
  48.3369         59
  48.3555         58
  48.3740         54
  48.3926         67
  48.4112         58
  48.4298         75
  48.4483         66
  48.4669         65
  48.4855         55
  48.5041         54
  48.5226         68
  48.5412         56
  48.5598         68
  48.5784         65
  48.5969         55
  48.6155         67
  48.6341         69
  48.6527         73
  48.6712         78
  48.6898         69
  48.7084         63
  48.7270         66
  48.7455         74
  48.7641         79
  48.7827         68
  48.8013         63
  48.8198         68
  48.8384         68
  48.8570         75
  48.8756         64
  48.8941         63
  48.9127         81
  48.9313         85
  48.9499        131
  48.9684        113
  48.9870         92
  49.0056         93
  49.0242         82
  49.0427         73
  49.0613         89
  49.0799         86
  49.0985         97
  49.1171         89
  49.1356         80
  49.1542         79
  49.1728         64
  49.1914         61
  49.2099         66
  49.2285         68
  49.2471         64
  49.2657         72
  49.2842         77
  49.3028         70
  49.3214         47
  49.3400         59
  49.3585         51
  49.3771         69
  49.3957         48
  49.4143         63
  49.4328         69
  49.4514         48
  49.4700         60
  49.4886         63
  49.5071         54
  49.5257         56
  49.5443         67
  49.5629         69
  49.5814         59
  49.6000         50
  49.6186         56
  49.6372         60
  49.6557         60
  49.6743         62
  49.6929         72
  49.7115         48
  49.7300         56
  49.7486         58
  49.7672         69
  49.7858         71
  49.8043         62
  49.8229         70
  49.8415         58
  49.8601         69
  49.8786         75
  49.8972         65
  49.9158         54
  49.9344         59
  49.9530         72
  49.9715         65
  49.9901         53
  50.0087         69
  50.0273         67
  50.0458         56
  50.0644         58
  50.0830         74
  50.1016         54
  50.1201         59
  50.1387         77
  50.1573         55
  50.1759         81
  50.1944         66
  50.2130         68
  50.2316         70
  50.2502         56
  50.2687         73
  50.2873         56
  50.3059         51
  50.3245         69
  50.3430         68
  50.3616         59
  50.3802         66
  50.3988         50
  50.4173         65
  50.4359         69
  50.4545         72
  50.4731         61
  50.4916         49
  50.5102         60
  50.5288         61
  50.5474         63
  50.5659         48
  50.5845         60
  50.6031         66
  50.6217         43
  50.6402         57
  50.6588         55
  50.6774         68
  50.6960         54
  50.7146         59
  50.7331         49
  50.7517         62
  50.7703         72
  50.7889         55
  50.8074         54
  50.8260         64
  50.8446         69
  50.8632         49
  50.8817         57
  50.9003         60
  50.9189         45
  50.9375         56
  50.9560         64
  50.9746         65
  50.9932         59
  51.0118         62
  51.0303         67
  51.0489         62
  51.0675         55
  51.0861         62
  51.1046         42
  51.1232         54
  51.1418         62
  51.1604         57
  51.1789         68
  51.1975         58
  51.2161         78
  51.2347         58
  51.2532         53
  51.2718         68
  51.2904         70
  51.3090         60
  51.3275         64
  51.3461         56
  51.3647         67
  51.3833         64
  51.4018         82
  51.4204         70
  51.4390         59
  51.4576         59
  51.4762         68
  51.4947         60
  51.5133         67
  51.5319         66
  51.5505         68
  51.5690         48
  51.5876         69
  51.6062         58
  51.6248         62
  51.6433         60
  51.6619         77
  51.6805         59
  51.6991         60
  51.7176         56
  51.7362         69
  51.7548         65
  51.7734         62
  51.7919         55
  51.8105         65
  51.8291         61
  51.8477         68
  51.8662         70
  51.8848         63
  51.9034         60
  51.9220         69
  51.9405         65
  51.9591         52
  51.9777         83
  51.9963         58
  52.0148         55
  52.0334         55
  52.0520         48
  52.0706         60
  52.0891         64
  52.1077         76
  52.1263         48
  52.1449         56
  52.1634         53
  52.1820         52
  52.2006         54
  52.2192         73
  52.2378         48
  52.2563         57
  52.2749         56
  52.2935         58
  52.3121         73
  52.3306         47
  52.3492         52
  52.3678         51
  52.3864         59
  52.4049         55
  52.4235         44
  52.4421         45
  52.4607         64
  52.4792         54
  52.4978         59
  52.5164         49
  52.5350         57
  52.5535         69
  52.5721         55
  52.5907         52
  52.6093         54
  52.6278         53
  52.6464         58
  52.6650         46
  52.6836         53
  52.7021         58
  52.7207         61
  52.7393         57
  52.7579         55
  52.7764         58
  52.7950         55
  52.8136         60
  52.8322         59
  52.8507         50
  52.8693         59
  52.8879         50
  52.9065         49
  52.9250         66
  52.9436         55
  52.9622         63
  52.9808         63
  52.9994         76
  53.0179         61
  53.0365         66
  53.0551         69
  53.0737         64
  53.0922         66
  53.1108         57
  53.1294         56
  53.1480         51
  53.1665         72
  53.1851         69
  53.2037         72
  53.2223         48
  53.2408         58
  53.2594         67
  53.2780         52
  53.2966         65
  53.3151         55
  53.3337         55
  53.3523         53
  53.3709         63
  53.3894         58
  53.4080         55
  53.4266         60
  53.4452         54
  53.4637         37
  53.4823         62
  53.5009         61
  53.5195         57
  53.5380         49
  53.5566         59
  53.5752         68
  53.5938         51
  53.6123         61
  53.6309         61
  53.6495         68
  53.6681         57
  53.6866         49
  53.7052         63
  53.7238         61
  53.7424         66
  53.7610         56
  53.7795         59
  53.7981         72
  53.8167         61
  53.8353         66
  53.8538         66
  53.8724         51
  53.8910         56
  53.9096         71
  53.9281         41
  53.9467         60
  53.9653         76
  53.9839         81
  54.0024         82
  54.0210         79
  54.0396         56
  54.0582         60
  54.0767         56
  54.0953         50
  54.1139         64
  54.1325         73
  54.1510         60
  54.1696         69
  54.1882         60
  54.2068         64
  54.2253         59
  54.2439         54
  54.2625         58
  54.2811         52
  54.2996         77
  54.3182         41
  54.3368         65
  54.3554         60
  54.3739         58
  54.3925         57
  54.4111         58
  54.4297         62
  54.4482         70
  54.4668         55
  54.4854         67
  54.5040         57
  54.5225         60
  54.5411         55
  54.5597         64
  54.5783         65
  54.5969         59
  54.6154         67
  54.6340         52
  54.6526         59
  54.6712         56
  54.6897         54
  54.7083         60
  54.7269         55
  54.7455         56
  54.7640         53
  54.7826         64
  54.8012         57
  54.8198         59
  54.8383         55
  54.8569         53
  54.8755         58
  54.8941         46
  54.9126         55
  54.9312         51
  54.9498         55
  54.9684         50
  54.9869         60
  55.0055         54
  55.0241         43
  55.0427         62
  55.0612         70
  55.0798         58
  55.0984         63
  55.1170         60
  55.1355         54
  55.1541         62
  55.1727         55
  55.1913         63
  55.2098         61
  55.2284         61
  55.2470         54
  55.2656         46
  55.2841         59
  55.3027         66
  55.3213         63
  55.3399         51
  55.3585         65
  55.3770         59
  55.3956         62
  55.4142         52
  55.4328         69
  55.4513         54
  55.4699         51
  55.4885         59
  55.5071         55
  55.5256         49
  55.5442         49
  55.5628         52
  55.5814         50
  55.5999         60
  55.6185         71
  55.6371         54
  55.6557         49
  55.6742         59
  55.6928         65
  55.7114         59
  55.7300         61
  55.7485         59
  55.7671         63
  55.7857         46
  55.8043         65
  55.8228         60
  55.8414         72
  55.8600         60
  55.8786         59
  55.8971         63
  55.9157         66
  55.9343         50
  55.9529         57
  55.9714         49
  55.9900         68
  56.0086         58
  56.0272         52
  56.0457         64
  56.0643         60
  56.0829         60
  56.1015         59
  56.1201         57
  56.1386         67
  56.1572         52
  56.1758         65
  56.1944         65
  56.2129         60
  56.2315         71
  56.2501         67
  56.2687         62
  56.2872         59
  56.3058         53
  56.3244         63
  56.3430         64
  56.3615         61
  56.3801         59
  56.3987         79
  56.4173         52
  56.4358         62
  56.4544         70
  56.4730         64
  56.4916         52
  56.5101         57
  56.5287         57
  56.5473         55
  56.5659         62
  56.5844         65
  56.6030         54
  56.6216         54
  56.6402         59
  56.6587         67
  56.6773         56
  56.6959         70
  56.7145         57
  56.7330         64
  56.7516         54
  56.7702         52
  56.7888         47
  56.8073         54
  56.8259         79
  56.8445         50
  56.8631         49
  56.8817         49
  56.9002         44
  56.9188         61
  56.9374         65
  56.9560         58
  56.9745         47
  56.9931         51
  57.0117         51
  57.0303         62
  57.0488         52
  57.0674         49
  57.0860         60
  57.1046         52
  57.1231         50
  57.1417         57
  57.1603         47
  57.1789         69
  57.1974         58
  57.2160         55
  57.2346         53
  57.2532         51
  57.2717         59
  57.2903         66
  57.3089         59
  57.3275         46
  57.3460         52
  57.3646         51
  57.3832         59
  57.4018         51
  57.4203         56
  57.4389         52
  57.4575         49
  57.4761         52
  57.4946         45
  57.5132         50
  57.5318         67
  57.5504         65
  57.5689         57
  57.5875         68
  57.6061         53
  57.6247         50
  57.6433         71
  57.6618         51
  57.6804         52
  57.6990         57
  57.7176         76
  57.7361         55
  57.7547         66
  57.7733         51
  57.7919         64
  57.8104         64
  57.8290         56
  57.8476         57
  57.8662         46
  57.8847         46
  57.9033         61
  57.9219         63
  57.9405         48
  57.9590         47
  57.9776         60
  57.9962         67
  58.0148         58
  58.0333         50
  58.0519         48
  58.0705         47
  58.0891         51
  58.1076         52
  58.1262         50
  58.1448         51
  58.1634         44
  58.1819         57
  58.2005         58
  58.2191         43
  58.2377         50
  58.2562         63
  58.2748         52
  58.2934         48
  58.3120         67
  58.3305         59
  58.3491         53
  58.3677         55
  58.3863         53
  58.4049         61
  58.4234         61
  58.4420         58
  58.4606         44
  58.4792         51
  58.4977         54
  58.5163         60
  58.5349         58
  58.5535         73
  58.5720         63
  58.5906         61
  58.6092         50
  58.6278         56
  58.6463         56
  58.6649         56
  58.6835         50
  58.7021         64
  58.7206         54
  58.7392         55
  58.7578         49
  58.7764         43
  58.7949         49
  58.8135         51
  58.8321         52
  58.8507         62
  58.8692         53
  58.8878         61
  58.9064         38
  58.9250         64
  58.9435         57
  58.9621         47
  58.9807         59
  58.9993         56
  59.0178         68
  59.0364         57
  59.0550         60
  59.0736         68
  59.0921         59
  59.1107         57
  59.1293         48
  59.1479         58
  59.1664         60
  59.1850         61
  59.2036         63
  59.2222         53
  59.2408         49
  59.2593         58
  59.2779         50
  59.2965         51
  59.3151         42
  59.3336         55
  59.3522         43
  59.3708         49
  59.3894         60
  59.4079         52
  59.4265         42
  59.4451         57
  59.4637         55
  59.4822         49
  59.5008         52
  59.5194         58
  59.5380         64
  59.5565         54
  59.5751         51
  59.5937         59
  59.6123         50
  59.6308         60
  59.6494         58
  59.6680         48
  59.6866         56
  59.7051         48
  59.7237         50
  59.7423         49
  59.7609         57
  59.7794         47
  59.7980         57
  59.8166         54
  59.8352         51
  59.8537         58
  59.8723         58
  59.8909         60
  59.9095         60
  59.9280         54
  59.9466         55
  59.9652         48
  59.9838         56
  60.0024         46
