; (content of file Y:\Sam\Apurva-07-20-2022\puck1\ML_20220721_38_SJD_0_LaB6-4min.raw)
_FILEVERSION = 3
_SAMPLE = ML_20220721_38_SJD_0_LaB6-4min
_+SAMPLE = 
_SITE = USA
_USER = Administrator
_GONIOMETER_CODE = 20
; Goniometer : D8 theta/2theta, stage : Unknown
_ATTACHMENTS_CODE = 0
_GONIOMETER_RADIUS = 200.5
_FIXED_DIVSLIT = 0.6
_FIXED_SAMPLESLIT = 0
_SOLLER_SLITS = 2
_FIXED_DETSLIT = 9.55
_MONOCHROMATOR = 0
; Incident beam monochromator : None
_SOLLER_SLITS_2 = N
_THIN_FILM = N
_BETA_FILTER = Y
_FIXED_ANTISLIT = 5.89
_ANALYZER_CODE = 0
; Received beam analyzer : None
_DATEMEASURED = "25-Jul-2022 16:42:49"
_WL_UNIT = A
_WL1 = 1.5406
_WL2 = 1.54439
_WL3 = 1.39222
_WLRATIO = 0.5
_ANODE = Cu
_V4_INF_CREATOR = XRDWizard
_V4_INF_CREATOR_VERSION = V2.9.0.22
_V4_INF_WIZARD_VERSION = V2.9.0.22
_V4_INF_WIZARD_ADDINS = V2.9.0.22
_V4_INF_WIZARD_DOCTYPE = XRD
_V4_INF_OSUSER = McQueenLab
_V4_INF_USER = Administrator
_V4_INF_SITE = USA
_V4_INF_SAMPLEID = ML_20220721_38_SJD_0_LaB6-4min

; Data for range 1
_DRIVE = COUPLED
_STEPTIME = 11.28
_STEPSIZE = 0.0185756
_STEPMODE = C
_START = 5
_THETA = 2.5
_2THETA = 5
_KHI = 0
_PHI = 0
_X = 0
_Y = 0
_Z = 0
_DETECTOR = 5
; Detector type : Unknown
_DETECTORSLIT = unkn
_AUX1 = 0
_AUX2 = 0
_AUX3 = 0
_TIMESTARTED = 15
_TEMP_RATE = -1
_TEMP_DELAY = -1
_KV = 40
_MA = 40
_RANGE_WL = 1.5406
_3DPLANE = 0
_V4_ADDITIONALDETECTOR = 257
_V4_PSD2THETA = 3.3878
_V4_PSDCHANNEL1 = 0
_V4_PSDAPERTURE = 12.68
_V4_PSDTYPE = 5
_V4_PSDFIXED = 0
_V4_COUNTERS_MASK = 4096
_V4_DRIVES_MASK = 0
_V4_ENCODERS_MASK = 0
_2THETACOUNTS = 1
; 2THETA  PSD
   5.0000        275
   5.0186        285
   5.0372        262
   5.0557        262
   5.0743        253
   5.0929        282
   5.1115        251
   5.1300        280
   5.1486        275
   5.1672        236
   5.1858        272
   5.2043        228
   5.2229        250
   5.2415        242
   5.2601        253
   5.2786        239
   5.2972        228
   5.3158        257
   5.3344        204
   5.3529        231
   5.3715        243
   5.3901        271
   5.4087        258
   5.4272        244
   5.4458        223
   5.4644        246
   5.4830        246
   5.5015        241
   5.5201        242
   5.5387        208
   5.5573        219
   5.5758        229
   5.5944        237
   5.6130        229
   5.6316        223
   5.6501        234
   5.6687        205
   5.6873        217
   5.7059        195
   5.7244        210
   5.7430        234
   5.7616        185
   5.7802        206
   5.7988        220
   5.8173        219
   5.8359        228
   5.8545        217
   5.8731        199
   5.8916        224
   5.9102        222
   5.9288        189
   5.9474        198
   5.9659        181
   5.9845        201
   6.0031        219
   6.0217        183
   6.0402        216
   6.0588        185
   6.0774        208
   6.0960        195
   6.1145        194
   6.1331        181
   6.1517        196
   6.1703        212
   6.1888        195
   6.2074        201
   6.2260        167
   6.2446        211
   6.2631        176
   6.2817        212
   6.3003        160
   6.3189        190
   6.3374        193
   6.3560        162
   6.3746        172
   6.3932        183
   6.4117        187
   6.4303        172
   6.4489        196
   6.4675        190
   6.4860        161
   6.5046        180
   6.5232        172
   6.5418        180
   6.5604        202
   6.5789        175
   6.5975        157
   6.6161        196
   6.6347        149
   6.6532        187
   6.6718        163
   6.6904        183
   6.7090        171
   6.7275        155
   6.7461        137
   6.7647        173
   6.7833        160
   6.8018        161
   6.8204        179
   6.8390        177
   6.8576        167
   6.8761        179
   6.8947        153
   6.9133        184
   6.9319        186
   6.9504        142
   6.9690        149
   6.9876        183
   7.0062        135
   7.0247        169
   7.0433        166
   7.0619        182
   7.0805        169
   7.0990        196
   7.1176        159
   7.1362        173
   7.1548        177
   7.1733        175
   7.1919        186
   7.2105        179
   7.2291        170
   7.2476        179
   7.2662        164
   7.2848        168
   7.3034        138
   7.3220        165
   7.3405        164
   7.3591        169
   7.3777        157
   7.3963        163
   7.4148        186
   7.4334        159
   7.4520        138
   7.4706        164
   7.4891        154
   7.5077        157
   7.5263        185
   7.5449        153
   7.5634        194
   7.5820        173
   7.6006        153
   7.6192        186
   7.6377        176
   7.6563        179
   7.6749        146
   7.6935        143
   7.7120        143
   7.7306        187
   7.7492        189
   7.7678        166
   7.7863        203
   7.8049        174
   7.8235        180
   7.8421        188
   7.8606        175
   7.8792        189
   7.8978        184
   7.9164        194
   7.9349        172
   7.9535        178
   7.9721        204
   7.9907        190
   8.0092        172
   8.0278        221
   8.0464        169
   8.0650        188
   8.0835        183
   8.1021        201
   8.1207        185
   8.1393        221
   8.1579        178
   8.1764        189
   8.1950        202
   8.2136        182
   8.2322        192
   8.2507        177
   8.2693        198
   8.2879        198
   8.3065        199
   8.3250        224
   8.3436        183
   8.3622        188
   8.3808        214
   8.3993        171
   8.4179        176
   8.4365        193
   8.4551        209
   8.4736        197
   8.4922        185
   8.5108        225
   8.5294        197
   8.5479        179
   8.5665        185
   8.5851        193
   8.6037        200
   8.6222        201
   8.6408        211
   8.6594        219
   8.6780        187
   8.6965        191
   8.7151        183
   8.7337        218
   8.7523        214
   8.7708        205
   8.7894        207
   8.8080        183
   8.8266        195
   8.8451        193
   8.8637        213
   8.8823        209
   8.9009        188
   8.9195        195
   8.9380        221
   8.9566        204
   8.9752        225
   8.9938        208
   9.0123        227
   9.0309        213
   9.0495        218
   9.0681        225
   9.0866        212
   9.1052        204
   9.1238        232
   9.1424        219
   9.1609        219
   9.1795        193
   9.1981        235
   9.2167        233
   9.2352        181
   9.2538        214
   9.2724        211
   9.2910        238
   9.3095        224
   9.3281        243
   9.3467        219
   9.3653        203
   9.3838        209
   9.4024        215
   9.4210        229
   9.4396        218
   9.4581        236
   9.4767        235
   9.4953        223
   9.5139        253
   9.5324        237
   9.5510        234
   9.5696        206
   9.5882        193
   9.6067        244
   9.6253        244
   9.6439        232
   9.6625        259
   9.6811        221
   9.6996        267
   9.7182        236
   9.7368        236
   9.7554        230
   9.7739        225
   9.7925        230
   9.8111        227
   9.8297        210
   9.8482        226
   9.8668        238
   9.8854        246
   9.9040        256
   9.9225        267
   9.9411        250
   9.9597        251
   9.9783        228
   9.9968        250
  10.0154        219
  10.0340        244
  10.0526        262
  10.0711        229
  10.0897        230
  10.1083        243
  10.1269        263
  10.1454        221
  10.1640        262
  10.1826        221
  10.2012        249
  10.2197        251
  10.2383        264
  10.2569        234
  10.2755        274
  10.2940        258
  10.3126        227
  10.3312        239
  10.3498        250
  10.3683        231
  10.3869        234
  10.4055        254
  10.4241        249
  10.4427        242
  10.4612        248
  10.4798        249
  10.4984        251
  10.5170        251
  10.5355        259
  10.5541        239
  10.5727        222
  10.5913        213
  10.6098        236
  10.6284        233
  10.6470        245
  10.6656        251
  10.6841        253
  10.7027        236
  10.7213        212
  10.7399        249
  10.7584        249
  10.7770        232
  10.7956        227
  10.8142        244
  10.8327        249
  10.8513        243
  10.8699        243
  10.8885        228
  10.9070        224
  10.9256        255
  10.9442        255
  10.9628        250
  10.9813        238
  10.9999        246
  11.0185        244
  11.0371        248
  11.0556        221
  11.0742        232
  11.0928        237
  11.1114        245
  11.1299        242
  11.1485        259
  11.1671        228
  11.1857        239
  11.2043        226
  11.2228        258
  11.2414        239
  11.2600        260
  11.2786        243
  11.2971        219
  11.3157        234
  11.3343        249
  11.3529        245
  11.3714        241
  11.3900        225
  11.4086        250
  11.4272        267
  11.4457        255
  11.4643        223
  11.4829        257
  11.5015        266
  11.5200        220
  11.5386        222
  11.5572        231
  11.5758        262
  11.5943        229
  11.6129        235
  11.6315        263
  11.6501        211
  11.6686        213
  11.6872        222
  11.7058        215
  11.7244        229
  11.7429        219
  11.7615        239
  11.7801        224
  11.7987        229
  11.8172        217
  11.8358        247
  11.8544        256
  11.8730        246
  11.8915        229
  11.9101        262
  11.9287        243
  11.9473        221
  11.9659        235
  11.9844        223
  12.0030        228
  12.0216        228
  12.0402        224
  12.0587        238
  12.0773        224
  12.0959        204
  12.1145        217
  12.1330        266
  12.1516        236
  12.1702        214
  12.1888        231
  12.2073        232
  12.2259        202
  12.2445        232
  12.2631        212
  12.2816        234
  12.3002        205
  12.3188        220
  12.3374        238
  12.3559        211
  12.3745        236
  12.3931        214
  12.4117        224
  12.4302        208
  12.4488        232
  12.4674        233
  12.4860        229
  12.5045        225
  12.5231        211
  12.5417        238
  12.5603        217
  12.5788        204
  12.5974        199
  12.6160        208
  12.6346        230
  12.6531        225
  12.6717        226
  12.6903        222
  12.7089        202
  12.7274        230
  12.7460        222
  12.7646        187
  12.7832        219
  12.8018        185
  12.8203        199
  12.8389        197
  12.8575        194
  12.8761        204
  12.8946        215
  12.9132        216
  12.9318        211
  12.9504        223
  12.9689        197
  12.9875        208
  13.0061        209
  13.0247        230
  13.0432        204
  13.0618        188
  13.0804        194
  13.0990        207
  13.1175        219
  13.1361        197
  13.1547        212
  13.1733        201
  13.1918        186
  13.2104        201
  13.2290        197
  13.2476        191
  13.2661        213
  13.2847        199
  13.3033        201
  13.3219        203
  13.3404        196
  13.3590        203
  13.3776        187
  13.3962        193
  13.4147        183
  13.4333        203
  13.4519        190
  13.4705        206
  13.4890        174
  13.5076        179
  13.5262        183
  13.5448        178
  13.5634        179
  13.5819        191
  13.6005        194
  13.6191        180
  13.6377        188
  13.6562        206
  13.6748        192
  13.6934        192
  13.7120        188
  13.7305        188
  13.7491        217
  13.7677        194
  13.7863        194
  13.8048        194
  13.8234        175
  13.8420        170
  13.8606        174
  13.8791        173
  13.8977        186
  13.9163        199
  13.9349        199
  13.9534        193
  13.9720        174
  13.9906        175
  14.0092        175
  14.0277        187
  14.0463        170
  14.0649        183
  14.0835        198
  14.1020        150
  14.1206        178
  14.1392        190
  14.1578        178
  14.1763        167
  14.1949        174
  14.2135        176
  14.2321        181
  14.2506        175
  14.2692        164
  14.2878        194
  14.3064        185
  14.3250        212
  14.3435        174
  14.3621        179
  14.3807        163
  14.3993        176
  14.4178        180
  14.4364        180
  14.4550        199
  14.4736        158
  14.4921        190
  14.5107        170
  14.5293        153
  14.5479        182
  14.5664        182
  14.5850        164
  14.6036        175
  14.6222        204
  14.6407        188
  14.6593        190
  14.6779        187
  14.6965        182
  14.7150        179
  14.7336        161
  14.7522        146
  14.7708        193
  14.7893        171
  14.8079        151
  14.8265        159
  14.8451        156
  14.8636        157
  14.8822        197
  14.9008        184
  14.9194        170
  14.9379        183
  14.9565        172
  14.9751        168
  14.9937        161
  15.0122        161
  15.0308        144
  15.0494        161
  15.0680        169
  15.0866        152
  15.1051        175
  15.1237        169
  15.1423        159
  15.1609        166
  15.1794        172
  15.1980        172
  15.2166        186
  15.2352        177
  15.2537        177
  15.2723        149
  15.2909        152
  15.3095        178
  15.3280        168
  15.3466        169
  15.3652        163
  15.3838        173
  15.4023        196
  15.4209        171
  15.4395        161
  15.4581        154
  15.4766        171
  15.4952        148
  15.5138        170
  15.5324        173
  15.5509        179
  15.5695        190
  15.5881        176
  15.6067        177
  15.6252        165
  15.6438        159
  15.6624        163
  15.6810        167
  15.6995        187
  15.7181        166
  15.7367        173
  15.7553        167
  15.7738        157
  15.7924        178
  15.8110        180
  15.8296        188
  15.8482        152
  15.8667        177
  15.8853        179
  15.9039        176
  15.9225        154
  15.9410        158
  15.9596        148
  15.9782        142
  15.9968        169
  16.0153        153
  16.0339        154
  16.0525        154
  16.0711        168
  16.0896        163
  16.1082        163
  16.1268        162
  16.1454        153
  16.1639        169
  16.1825        151
  16.2011        166
  16.2197        150
  16.2382        180
  16.2568        168
  16.2754        161
  16.2940        158
  16.3125        169
  16.3311        178
  16.3497        154
  16.3683        159
  16.3868        156
  16.4054        168
  16.4240        160
  16.4426        135
  16.4611        165
  16.4797        161
  16.4983        162
  16.5169        173
  16.5354        189
  16.5540        183
  16.5726        153
  16.5912        165
  16.6097        163
  16.6283        176
  16.6469        187
  16.6655        162
  16.6841        145
  16.7026        164
  16.7212        135
  16.7398        165
  16.7584        152
  16.7769        170
  16.7955        160
  16.8141        132
  16.8327        135
  16.8512        159
  16.8698        174
  16.8884        179
  16.9070        161
  16.9255        160
  16.9441        148
  16.9627        170
  16.9813        155
  16.9998        168
  17.0184        140
  17.0370        168
  17.0556        142
  17.0741        154
  17.0927        182
  17.1113        171
  17.1299        168
  17.1484        177
  17.1670        166
  17.1856        172
  17.2042        162
  17.2227        180
  17.2413        160
  17.2599        174
  17.2785        178
  17.2970        159
  17.3156        160
  17.3342        161
  17.3528        184
  17.3713        174
  17.3899        166
  17.4085        158
  17.4271        162
  17.4457        173
  17.4642        162
  17.4828        161
  17.5014        176
  17.5200        131
  17.5385        142
  17.5571        160
  17.5757        151
  17.5943        154
  17.6128        182
  17.6314        150
  17.6500        156
  17.6686        144
  17.6871        166
  17.7057        168
  17.7243        149
  17.7429        179
  17.7614        162
  17.7800        154
  17.7986        174
  17.8172        162
  17.8357        151
  17.8543        158
  17.8729        160
  17.8915        175
  17.9100        168
  17.9286        172
  17.9472        176
  17.9658        174
  17.9843        140
  18.0029        175
  18.0215        174
  18.0401        166
  18.0586        169
  18.0772        148
  18.0958        167
  18.1144        169
  18.1329        172
  18.1515        154
  18.1701        156
  18.1887        186
  18.2073        154
  18.2258        162
  18.2444        166
  18.2630        169
  18.2816        149
  18.3001        169
  18.3187        163
  18.3373        207
  18.3559        178
  18.3744        142
  18.3930        183
  18.4116        173
  18.4302        161
  18.4487        171
  18.4673        176
  18.4859        160
  18.5045        164
  18.5230        188
  18.5416        161
  18.5602        143
  18.5788        178
  18.5973        172
  18.6159        181
  18.6345        170
  18.6531        148
  18.6716        171
  18.6902        164
  18.7088        162
  18.7274        169
  18.7459        170
  18.7645        178
  18.7831        195
  18.8017        185
  18.8202        182
  18.8388        174
  18.8574        175
  18.8760        170
  18.8945        172
  18.9131        189
  18.9317        188
  18.9503        179
  18.9689        172
  18.9874        146
  19.0060        192
  19.0246        182
  19.0432        165
  19.0617        166
  19.0803        163
  19.0989        182
  19.1175        162
  19.1360        170
  19.1546        207
  19.1732        179
  19.1918        175
  19.2103        181
  19.2289        204
  19.2475        153
  19.2661        197
  19.2846        168
  19.3032        163
  19.3218        177
  19.3404        184
  19.3589        165
  19.3775        168
  19.3961        180
  19.4147        171
  19.4332        162
  19.4518        194
  19.4704        186
  19.4890        195
  19.5075        154
  19.5261        194
  19.5447        178
  19.5633        156
  19.5818        171
  19.6004        168
  19.6190        161
  19.6376        155
  19.6561        167
  19.6747        186
  19.6933        167
  19.7119        181
  19.7305        170
  19.7490        181
  19.7676        197
  19.7862        190
  19.8048        183
  19.8233        160
  19.8419        169
  19.8605        169
  19.8791        171
  19.8976        173
  19.9162        174
  19.9348        185
  19.9534        171
  19.9719        190
  19.9905        182
  20.0091        170
  20.0277        164
  20.0462        201
  20.0648        185
  20.0834        185
  20.1020        183
  20.1205        193
  20.1391        174
  20.1577        179
  20.1763        202
  20.1948        168
  20.2134        187
  20.2320        179
  20.2506        174
  20.2691        191
  20.2877        187
  20.3063        185
  20.3249        177
  20.3434        179
  20.3620        181
  20.3806        175
  20.3992        167
  20.4177        191
  20.4363        166
  20.4549        211
  20.4735        176
  20.4921        186
  20.5106        159
  20.5292        174
  20.5478        181
  20.5664        206
  20.5849        179
  20.6035        205
  20.6221        168
  20.6407        180
  20.6592        210
  20.6778        176
  20.6964        182
  20.7150        187
  20.7335        202
  20.7521        212
  20.7707        201
  20.7893        191
  20.8078        189
  20.8264        161
  20.8450        160
  20.8636        182
  20.8821        205
  20.9007        216
  20.9193        194
  20.9379        194
  20.9564        202
  20.9750        214
  20.9936        212
  21.0122        193
  21.0307        193
  21.0493        188
  21.0679        198
  21.0865        180
  21.1050        208
  21.1236        230
  21.1422        214
  21.1608        232
  21.1793        245
  21.1979        312
  21.2165        321
  21.2351        324
  21.2537        254
  21.2722        329
  21.2908        297
  21.3094        344
  21.3280        367
  21.3465        476
  21.3651        576
  21.3837        432
  21.4023        401
  21.4208        364
  21.4394        275
  21.4580        229
  21.4766        236
  21.4951        208
  21.5137        220
  21.5323        203
  21.5509        197
  21.5694        197
  21.5880        208
  21.6066        214
  21.6252        205
  21.6437        193
  21.6623        223
  21.6809        192
  21.6995        208
  21.7180        183
  21.7366        187
  21.7552        178
  21.7738        191
  21.7923        211
  21.8109        190
  21.8295        188
  21.8481        202
  21.8666        186
  21.8852        190
  21.9038        187
  21.9224        183
  21.9409        194
  21.9595        212
  21.9781        194
  21.9967        197
  22.0152        175
  22.0338        214
  22.0524        226
  22.0710        197
  22.0896        166
  22.1081        184
  22.1267        189
  22.1453        193
  22.1639        220
  22.1824        212
  22.2010        206
  22.2196        194
  22.2382        187
  22.2567        206
  22.2753        204
  22.2939        202
  22.3125        195
  22.3310        215
  22.3496        192
  22.3682        179
  22.3868        183
  22.4053        216
  22.4239        195
  22.4425        180
  22.4611        202
  22.4796        231
  22.4982        187
  22.5168        200
  22.5354        208
  22.5539        188
  22.5725        179
  22.5911        210
  22.6097        181
  22.6282        231
  22.6468        188
  22.6654        212
  22.6840        197
  22.7025        219
  22.7211        215
  22.7397        187
  22.7583        193
  22.7768        209
  22.7954        189
  22.8140        188
  22.8326        204
  22.8512        207
  22.8697        190
  22.8883        198
  22.9069        236
  22.9255        205
  22.9440        215
  22.9626        196
  22.9812        187
  22.9998        194
  23.0183        202
  23.0369        198
  23.0555        190
  23.0741        187
  23.0926        204
  23.1112        187
  23.1298        223
  23.1484        198
  23.1669        214
  23.1855        207
  23.2041        193
  23.2227        212
  23.2412        189
  23.2598        202
  23.2784        189
  23.2970        165
  23.3155        226
  23.3341        194
  23.3527        198
  23.3713        194
  23.3898        177
  23.4084        187
  23.4270        205
  23.4456        197
  23.4641        207
  23.4827        210
  23.5013        195
  23.5199        199
  23.5384        204
  23.5570        198
  23.5756        184
  23.5942        208
  23.6128        171
  23.6313        192
  23.6499        188
  23.6685        205
  23.6871        181
  23.7056        211
  23.7242        206
  23.7428        196
  23.7614        188
  23.7799        214
  23.7985        208
  23.8171        197
  23.8357        192
  23.8542        205
  23.8728        215
  23.8914        202
  23.9100        191
  23.9285        197
  23.9471        197
  23.9657        210
  23.9843        187
  24.0028        212
  24.0214        237
  24.0400        239
  24.0586        222
  24.0771        205
  24.0957        224
  24.1143        186
  24.1329        209
  24.1514        184
  24.1700        192
  24.1886        223
  24.2072        198
  24.2257        209
  24.2443        228
  24.2629        213
  24.2815        203
  24.3000        198
  24.3186        219
  24.3372        215
  24.3558        204
  24.3744        191
  24.3929        202
  24.4115        192
  24.4301        202
  24.4487        208
  24.4672        175
  24.4858        223
  24.5044        223
  24.5230        201
  24.5415        218
  24.5601        228
  24.5787        204
  24.5973        211
  24.6158        221
  24.6344        179
  24.6530        230
  24.6716        215
  24.6901        218
  24.7087        199
  24.7273        206
  24.7459        182
  24.7644        218
  24.7830        218
  24.8016        214
  24.8202        181
  24.8387        208
  24.8573        186
  24.8759        194
  24.8945        195
  24.9130        203
  24.9316        205
  24.9502        216
  24.9688        205
  24.9873        184
  25.0059        195
  25.0245        192
  25.0431        172
  25.0616        192
  25.0802        202
  25.0988        197
  25.1174        211
  25.1360        199
  25.1545        216
  25.1731        204
  25.1917        201
  25.2103        190
  25.2288        190
  25.2474        208
  25.2660        201
  25.2846        228
  25.3031        196
  25.3217        207
  25.3403        201
  25.3589        197
  25.3774        176
  25.3960        202
  25.4146        200
  25.4332        199
  25.4517        183
  25.4703        200
  25.4889        181
  25.5075        181
  25.5260        186
  25.5446        209
  25.5632        181
  25.5818        209
  25.6003        181
  25.6189        217
  25.6375        219
  25.6561        212
  25.6746        189
  25.6932        158
  25.7118        196
  25.7304        188
  25.7489        193
  25.7675        187
  25.7861        198
  25.8047        197
  25.8232        180
  25.8418        207
  25.8604        186
  25.8790        169
  25.8976        189
  25.9161        180
  25.9347        209
  25.9533        209
  25.9719        208
  25.9904        164
  26.0090        167
  26.0276        184
  26.0462        214
  26.0647        197
  26.0833        208
  26.1019        206
  26.1205        197
  26.1390        165
  26.1576        198
  26.1762        207
  26.1948        205
  26.2133        202
  26.2319        178
  26.2505        190
  26.2691        184
  26.2876        175
  26.3062        203
  26.3248        187
  26.3434        164
  26.3619        191
  26.3805        192
  26.3991        198
  26.4177        185
  26.4362        195
  26.4548        196
  26.4734        194
  26.4920        182
  26.5105        187
  26.5291        206
  26.5477        184
  26.5663        174
  26.5848        180
  26.6034        193
  26.6220        189
  26.6406        194
  26.6591        188
  26.6777        198
  26.6963        188
  26.7149        206
  26.7335        175
  26.7520        181
  26.7706        189
  26.7892        186
  26.8078        204
  26.8263        188
  26.8449        205
  26.8635        172
  26.8821        208
  26.9006        157
  26.9192        172
  26.9378        205
  26.9564        188
  26.9749        200
  26.9935        183
  27.0121        153
  27.0307        191
  27.0492        206
  27.0678        227
  27.0864        186
  27.1050        179
  27.1235        188
  27.1421        194
  27.1607        212
  27.1793        217
  27.1978        241
  27.2164        254
  27.2350        239
  27.2536        240
  27.2721        212
  27.2907        192
  27.3093        219
  27.3279        229
  27.3464        199
  27.3650        195
  27.3836        186
  27.4022        190
  27.4207        192
  27.4393        202
  27.4579        181
  27.4765        202
  27.4951        214
  27.5136        188
  27.5322        189
  27.5508        177
  27.5694        155
  27.5879        173
  27.6065        196
  27.6251        180
  27.6437        178
  27.6622        189
  27.6808        211
  27.6994        199
  27.7180        174
  27.7365        169
  27.7551        154
  27.7737        183
  27.7923        214
  27.8108        198
  27.8294        179
  27.8480        183
  27.8666        172
  27.8851        199
  27.9037        177
  27.9223        187
  27.9409        206
  27.9594        172
  27.9780        193
  27.9966        189
  28.0152        200
  28.0337        162
  28.0523        181
  28.0709        178
  28.0895        186
  28.1080        161
  28.1266        159
  28.1452        189
  28.1638        186
  28.1823        163
  28.2009        198
  28.2195        188
  28.2381        166
  28.2567        193
  28.2752        159
  28.2938        173
  28.3124        169
  28.3310        188
  28.3495        175
  28.3681        180
  28.3867        172
  28.4053        169
  28.4238        194
  28.4424        181
  28.4610        174
  28.4796        150
  28.4981        148
  28.5167        169
  28.5353        149
  28.5539        165
  28.5724        151
  28.5910        176
  28.6096        193
  28.6282        137
  28.6467        176
  28.6653        164
  28.6839        186
  28.7025        151
  28.7210        194
  28.7396        156
  28.7582        163
  28.7768        174
  28.7953        132
  28.8139        169
  28.8325        163
  28.8511        178
  28.8696        156
  28.8882        169
  28.9068        183
  28.9254        169
  28.9439        171
  28.9625        186
  28.9811        165
  28.9997        168
  29.0183        158
  29.0368        162
  29.0554        168
  29.0740        168
  29.0926        171
  29.1111        170
  29.1297        168
  29.1483        164
  29.1669        159
  29.1854        156
  29.2040        171
  29.2226        163
  29.2412        157
  29.2597        160
  29.2783        172
  29.2969        150
  29.3155        128
  29.3340        171
  29.3526        183
  29.3712        163
  29.3898        163
  29.4083        167
  29.4269        156
  29.4455        158
  29.4641        180
  29.4826        149
  29.5012        144
  29.5198        169
  29.5384        153
  29.5569        147
  29.5755        176
  29.5941        155
  29.6127        185
  29.6312        167
  29.6498        160
  29.6684        161
  29.6870        146
  29.7055        177
  29.7241        182
  29.7427        143
  29.7613        155
  29.7799        171
  29.7984        144
  29.8170        162
  29.8356        160
  29.8542        196
  29.8727        139
  29.8913        162
  29.9099        148
  29.9285        165
  29.9470        167
  29.9656        163
  29.9842        147
  30.0028        134
  30.0213        155
  30.0399        137
  30.0585        145
  30.0771        156
  30.0956        176
  30.1142        149
  30.1328        157
  30.1514        183
  30.1699        164
  30.1885        153
  30.2071        151
  30.2257        173
  30.2442        150
  30.2628        177
  30.2814        182
  30.3000        168
  30.3185        170
  30.3371        217
  30.3557        237
  30.3743        324
  30.3928        306
  30.4114        277
  30.4300        219
  30.4486        248
  30.4671        263
  30.4857        230
  30.5043        160
  30.5229        153
  30.5415        179
  30.5600        179
  30.5786        166
  30.5972        160
  30.6158        154
  30.6343        144
  30.6529        170
  30.6715        140
  30.6901        153
  30.7086        160
  30.7272        150
  30.7458        139
  30.7644        158
  30.7829        129
  30.8015        142
  30.8201        168
  30.8387        143
  30.8572        139
  30.8758        147
  30.8944        178
  30.9130        169
  30.9315        152
  30.9501        144
  30.9687        119
  30.9873        152
  31.0058        131
  31.0244        126
  31.0430        146
  31.0616        145
  31.0801        145
  31.0987        158
  31.1173        142
  31.1359        129
  31.1544        143
  31.1730        154
  31.1916        147
  31.2102        147
  31.2287        149
  31.2473        161
  31.2659        140
  31.2845        118
  31.3030        140
  31.3216        143
  31.3402        163
  31.3588        143
  31.3774        143
  31.3959        137
  31.4145        149
  31.4331        138
  31.4517        127
  31.4702        138
  31.4888        137
  31.5074        134
  31.5260        143
  31.5445        135
  31.5631        140
  31.5817        113
  31.6003        140
  31.6188        130
  31.6374        145
  31.6560        161
  31.6746        120
  31.6931        134
  31.7117        152
  31.7303        157
  31.7489        158
  31.7674        151
  31.7860        160
  31.8046        148
  31.8232        130
  31.8417        128
  31.8603        131
  31.8789        160
  31.8975        149
  31.9160        149
  31.9346        145
  31.9532        111
  31.9718        151
  31.9903        147
  32.0089        142
  32.0275        142
  32.0461        147
  32.0646        145
  32.0832        139
  32.1018        142
  32.1204        105
  32.1390        141
  32.1575        131
  32.1761        131
  32.1947        145
  32.2133        157
  32.2318        134
  32.2504        146
  32.2690        131
  32.2876        143
  32.3061        136
  32.3247        131
  32.3433        138
  32.3619        145
  32.3804        143
  32.3990        155
  32.4176        122
  32.4362        140
  32.4547        150
  32.4733        134
  32.4919        160
  32.5105        161
  32.5290        145
  32.5476        157
  32.5662        130
  32.5848        134
  32.6033        142
  32.6219        166
  32.6405        123
  32.6591        156
  32.6776        142
  32.6962        133
  32.7148        118
  32.7334        137
  32.7519        126
  32.7705        144
  32.7891        119
  32.8077        125
  32.8262        113
  32.8448        123
  32.8634        133
  32.8820        111
  32.9006        129
  32.9191        142
  32.9377        124
  32.9563        121
  32.9749        137
  32.9934        121
  33.0120        119
  33.0306        114
  33.0492        124
  33.0677        109
  33.0863        122
  33.1049        125
  33.1235        133
  33.1420        124
  33.1606        107
  33.1792        124
  33.1978        111
  33.2163        128
  33.2349        118
  33.2535        117
  33.2721        121
  33.2906        109
  33.3092        135
  33.3278        113
  33.3464        118
  33.3649        123
  33.3835        125
  33.4021        116
  33.4207        101
  33.4392        114
  33.4578        135
  33.4764        117
  33.4950        116
  33.5135        108
  33.5321        113
  33.5507        126
  33.5693        103
  33.5878        134
  33.6064        124
  33.6250        135
  33.6436        114
  33.6622        117
  33.6807        125
  33.6993        127
  33.7179        130
  33.7365        115
  33.7550        133
  33.7736        125
  33.7922        127
  33.8108        107
  33.8293        110
  33.8479        110
  33.8665        120
  33.8851        124
  33.9036        114
  33.9222        119
  33.9408        133
  33.9594        125
  33.9779        115
  33.9965        120
  34.0151         92
  34.0337        115
  34.0522        119
  34.0708        132
  34.0894        122
  34.1080        131
  34.1265        111
  34.1451         99
  34.1637        134
  34.1823        114
  34.2008         97
  34.2194        125
  34.2380        108
  34.2566        108
  34.2751        104
  34.2937         93
  34.3123        117
  34.3309        125
  34.3494        119
  34.3680        104
  34.3866        124
  34.4052        115
  34.4238        127
  34.4423        134
  34.4609        130
  34.4795        125
  34.4981        110
  34.5166        116
  34.5352        128
  34.5538        116
  34.5724        115
  34.5909        131
  34.6095        109
  34.6281        147
  34.6467        154
  34.6652        123
  34.6838        133
  34.7024        148
  34.7210        138
  34.7395        152
  34.7581        164
  34.7767        175
  34.7953        130
  34.8138        129
  34.8324        142
  34.8510        138
  34.8696        142
  34.8881        119
  34.9067        133
  34.9253        116
  34.9439         99
  34.9624        121
  34.9810        108
  34.9996        104
  35.0182        116
  35.0367        126
  35.0553        130
  35.0739        104
  35.0925        107
  35.1110        108
  35.1296        119
  35.1482        125
  35.1668        108
  35.1854        105
  35.2039        106
  35.2225         95
  35.2411        108
  35.2597        101
  35.2782        101
  35.2968        108
  35.3154         89
  35.3340         88
  35.3525        115
  35.3711        105
  35.3897        101
  35.4083         95
  35.4268         99
  35.4454        112
  35.4640        118
  35.4826        107
  35.5011        107
  35.5197         99
  35.5383        111
  35.5569         87
  35.5754         99
  35.5940         99
  35.6126         81
  35.6312         81
  35.6497        110
  35.6683        108
  35.6869        101
  35.7055         93
  35.7240        110
  35.7426        107
  35.7612        107
  35.7798        104
  35.7983         94
  35.8169         91
  35.8355        110
  35.8541         96
  35.8726        104
  35.8912         99
  35.9098         92
  35.9284         91
  35.9469        103
  35.9655         99
  35.9841        111
  36.0027         94
  36.0213        100
  36.0398        110
  36.0584         96
  36.0770        102
  36.0956        105
  36.1141        108
  36.1327         91
  36.1513         85
  36.1699         92
  36.1884         96
  36.2070        110
  36.2256        100
  36.2442         91
  36.2627         96
  36.2813        107
  36.2999         81
  36.3185        113
  36.3370         99
  36.3556         98
  36.3742         83
  36.3928        113
  36.4113         99
  36.4299        111
  36.4485         92
  36.4671         96
  36.4856         87
  36.5042        108
  36.5228         92
  36.5414         97
  36.5599        117
  36.5785        101
  36.5971        101
  36.6157         86
  36.6342         85
  36.6528        108
  36.6714        100
  36.6900         83
  36.7085        112
  36.7271         91
  36.7457        110
  36.7643         86
  36.7829         94
  36.8014         81
  36.8200         98
  36.8386         87
  36.8572         84
  36.8757        101
  36.8943        110
  36.9129         82
  36.9315         94
  36.9500         78
  36.9686         74
  36.9872         84
  37.0058         88
  37.0243         80
  37.0429         93
  37.0615         99
  37.0801        109
  37.0986         81
  37.1172        112
  37.1358         94
  37.1544         97
  37.1729         88
  37.1915        104
  37.2101         82
  37.2287         96
  37.2472        103
  37.2658        102
  37.2844         90
  37.3030        110
  37.3215        109
  37.3401         89
  37.3587        114
  37.3773        111
  37.3958        105
  37.4144        126
  37.4330        143
  37.4516        152
  37.4701        135
  37.4887        118
  37.5073         88
  37.5259        113
  37.5445        128
  37.5630        104
  37.5816        105
  37.6002        113
  37.6188        103
  37.6373         87
  37.6559         88
  37.6745         85
  37.6931         90
  37.7116         85
  37.7302        104
  37.7488         85
  37.7674         83
  37.7859         73
  37.8045         76
  37.8231         83
  37.8417        102
  37.8602         90
  37.8788         79
  37.8974         84
  37.9160         86
  37.9345         83
  37.9531         90
  37.9717         91
  37.9903         94
  38.0088         85
  38.0274         93
  38.0460         66
  38.0646        109
  38.0831         90
  38.1017         87
  38.1203         66
  38.1389         68
  38.1574         87
  38.1760         90
  38.1946         92
  38.2132         68
  38.2317         99
  38.2503        103
  38.2689         77
  38.2875         88
  38.3061         82
  38.3246         83
  38.3432         76
  38.3618         77
  38.3804         73
  38.3989         87
  38.4175         92
  38.4361         77
  38.4547         93
  38.4732         82
  38.4918         92
  38.5104         88
  38.5290         81
  38.5475         79
  38.5661         80
  38.5847         67
  38.6033         73
  38.6218         80
  38.6404         92
  38.6590         92
  38.6776         92
  38.6961         92
  38.7147         97
  38.7333         85
  38.7519         77
  38.7704         68
  38.7890         99
  38.8076         82
  38.8262        108
  38.8447         81
  38.8633         99
  38.8819         95
  38.9005         77
  38.9190         79
  38.9376         79
  38.9562         80
  38.9748         91
  38.9933         94
  39.0119         72
  39.0305         78
  39.0491         72
  39.0677         78
  39.0862         78
  39.1048         82
  39.1234         87
  39.1420         80
  39.1605         86
  39.1791         75
  39.1977         91
  39.2163         83
  39.2348         82
  39.2534         89
  39.2720         91
  39.2906         92
  39.3091         83
  39.3277         74
  39.3463         84
  39.3649         81
  39.3834         83
  39.4020         83
  39.4206         74
  39.4392         95
  39.4577         69
  39.4763         80
  39.4949         89
  39.5135         74
  39.5320         89
  39.5506         74
  39.5692         78
  39.5878         93
  39.6063         66
  39.6249         70
  39.6435        109
  39.6621         91
  39.6806         80
  39.6992         61
  39.7178         98
  39.7364         64
  39.7549         76
  39.7735         65
  39.7921         77
  39.8107         83
  39.8293         75
  39.8478         77
  39.8664         85
  39.8850         87
  39.9036         94
  39.9221         72
  39.9407         86
  39.9593         68
  39.9779         72
  39.9964         80
  40.0150         70
  40.0336         85
  40.0522         81
  40.0707         84
  40.0893         95
  40.1079         67
  40.1265         80
  40.1450         76
  40.1636         91
  40.1822         87
  40.2008         68
  40.2193         74
  40.2379         67
  40.2565         91
  40.2751         83
  40.2936         89
  40.3122         86
  40.3308         92
  40.3494         86
  40.3679         92
  40.3865         95
  40.4051         82
  40.4237         71
  40.4422         97
  40.4608         74
  40.4794         81
  40.4980         90
  40.5165         76
  40.5351         77
  40.5537         82
  40.5723         71
  40.5908         81
  40.6094         91
  40.6280         77
  40.6466         68
  40.6652         78
  40.6837         78
  40.7023         61
  40.7209         69
  40.7395         62
  40.7580         79
  40.7766         65
  40.7952         81
  40.8138         82
  40.8323         81
  40.8509         78
  40.8695         72
  40.8881         78
  40.9066         75
  40.9252         98
  40.9438         90
  40.9624         94
  40.9809         98
  40.9995         76
  41.0181         73
  41.0367         92
  41.0552         85
  41.0738         81
  41.0924         78
  41.1110         71
  41.1295         76
  41.1481        104
  41.1667         83
  41.1853         87
  41.2038         85
  41.2224         66
  41.2410         73
  41.2596         78
  41.2781         72
  41.2967         77
  41.3153         70
  41.3339         71
  41.3524         98
  41.3710         88
  41.3896         69
  41.4082         91
  41.4268         70
  41.4453         82
  41.4639         73
  41.4825         83
  41.5011         75
  41.5196         81
  41.5382         63
  41.5568         76
  41.5754         87
  41.5939         67
  41.6125         75
  41.6311         73
  41.6497         85
  41.6682         84
  41.6868         68
  41.7054         76
  41.7240         80
  41.7425         74
  41.7611         70
  41.7797         65
  41.7983         69
  41.8168         77
  41.8354         76
  41.8540         86
  41.8726         70
  41.8911         67
  41.9097         82
  41.9283         65
  41.9469         65
  41.9654         84
  41.9840         72
  42.0026         86
  42.0212         67
  42.0397         89
  42.0583         80
  42.0769         80
  42.0955         75
  42.1140         76
  42.1326         64
  42.1512         81
  42.1698         75
  42.1884         78
  42.2069         73
  42.2255         78
  42.2441         76
  42.2627         77
  42.2812         64
  42.2998         80
  42.3184         60
  42.3370         95
  42.3555         55
  42.3741         84
  42.3927         65
  42.4113         85
  42.4298         63
  42.4484         75
  42.4670         96
  42.4856         88
  42.5041         69
  42.5227         78
  42.5413         75
  42.5599         67
  42.5784         73
  42.5970         69
  42.6156         73
  42.6342         73
  42.6527         72
  42.6713         69
  42.6899         79
  42.7085         71
  42.7270         66
  42.7456         79
  42.7642         71
  42.7828         79
  42.8013        100
  42.8199         84
  42.8385         94
  42.8571         80
  42.8756         78
  42.8942         77
  42.9128         77
  42.9314         90
  42.9500         72
  42.9685         76
  42.9871         76
  43.0057         64
  43.0243         73
  43.0428         75
  43.0614         72
  43.0800         75
  43.0986         78
  43.1171         84
  43.1357         80
  43.1543         98
  43.1729         67
  43.1914         84
  43.2100         81
  43.2286         87
  43.2472         88
  43.2657         92
  43.2843         88
  43.3029         94
  43.3215         90
  43.3400         84
  43.3586         88
  43.3772         87
  43.3958         68
  43.4143         92
  43.4329         97
  43.4515         80
  43.4701        123
  43.4886        120
  43.5072        128
  43.5258        138
  43.5444        116
  43.5629         73
  43.5815         76
  43.6001         78
  43.6187        119
  43.6372        100
  43.6558         89
  43.6744         65
  43.6930         60
  43.7116         81
  43.7301         82
  43.7487         69
  43.7673         84
  43.7859         94
  43.8044         89
  43.8230         78
  43.8416         67
  43.8602         72
  43.8787         82
  43.8973         78
  43.9159         66
  43.9345         53
  43.9530         63
  43.9716         61
  43.9902         63
  44.0088         72
  44.0273         72
  44.0459         72
  44.0645         84
  44.0831         71
  44.1016         87
  44.1202         65
  44.1388         65
  44.1574         91
  44.1759         82
  44.1945         59
  44.2131         68
  44.2317         64
  44.2502         68
  44.2688         86
  44.2874         86
  44.3060         69
  44.3245         77
  44.3431         65
  44.3617         77
  44.3803         71
  44.3988         80
  44.4174         80
  44.4360         71
  44.4546         78
  44.4732         78
  44.4917         63
  44.5103         66
  44.5289         89
  44.5475         74
  44.5660         73
  44.5846         78
  44.6032         62
  44.6218         73
  44.6403         78
  44.6589         92
  44.6775         89
  44.6961         63
  44.7146         97
  44.7332        107
  44.7518         79
  44.7704         77
  44.7889         85
  44.8075         82
  44.8261         71
  44.8447         54
  44.8632         74
  44.8818         65
  44.9004         75
  44.9190         75
  44.9375         83
  44.9561         58
  44.9747         82
  44.9933         70
  45.0118         78
  45.0304         72
  45.0490         65
  45.0676         73
  45.0861         86
  45.1047         79
  45.1233         65
  45.1419         58
  45.1604         66
  45.1790         84
  45.1976         59
  45.2162         66
  45.2347         68
  45.2533         75
  45.2719         69
  45.2905         75
  45.3091         83
  45.3276         50
  45.3462         61
  45.3648         57
  45.3834         83
  45.4019         66
  45.4205         80
  45.4391         76
  45.4577         79
  45.4762         80
  45.4948         80
  45.5134         75
  45.5320         70
  45.5505         71
  45.5691         74
  45.5877         71
  45.6063         66
  45.6248         69
  45.6434         65
  45.6620         69
  45.6806         75
  45.6991         74
  45.7177         74
  45.7363         64
  45.7549         60
  45.7734         73
  45.7920         61
  45.8106         77
  45.8292         68
  45.8477         71
  45.8663         73
  45.8849         70
  45.9035         54
  45.9220         78
  45.9406         69
  45.9592         60
  45.9778         58
  45.9963         49
  46.0149         62
  46.0335         75
  46.0521         59
  46.0707         63
  46.0892         76
  46.1078         69
  46.1264         69
  46.1450         60
  46.1635         64
  46.1821         63
  46.2007         71
  46.2193         57
  46.2378         66
  46.2564         62
  46.2750         69
  46.2936         69
  46.3121         69
  46.3307         71
  46.3493         56
  46.3679         75
  46.3864         71
  46.4050         63
  46.4236         72
  46.4422         62
  46.4607         52
  46.4793         72
  46.4979         69
  46.5165         70
  46.5350         67
  46.5536         75
  46.5722         62
  46.5908         73
  46.6093         73
  46.6279         70
  46.6465         69
  46.6651         64
  46.6836         54
  46.7022         63
  46.7208         74
  46.7394         74
  46.7579         63
  46.7765         71
  46.7951         60
  46.8137         68
  46.8323         74
  46.8508         67
  46.8694         59
  46.8880         69
  46.9066         67
  46.9251         77
  46.9437         71
  46.9623         63
  46.9809         65
  46.9994         80
  47.0180         68
  47.0366         64
  47.0552         66
  47.0737         72
  47.0923         70
  47.1109         57
  47.1295         68
  47.1480         71
  47.1666         68
  47.1852         66
  47.2038         81
  47.2223         57
  47.2409         50
  47.2595         57
  47.2781         63
  47.2966         61
  47.3152         65
  47.3338         66
  47.3524         65
  47.3709         64
  47.3895         61
  47.4081         60
  47.4267         52
  47.4452         57
  47.4638         50
  47.4824         57
  47.5010         69
  47.5195         64
  47.5381         67
  47.5567         74
  47.5753         66
  47.5939         64
  47.6124         57
  47.6310         71
  47.6496         62
  47.6682         67
  47.6867         70
  47.7053         69
  47.7239         61
  47.7425         59
  47.7610         65
  47.7796         54
  47.7982         70
  47.8168         64
  47.8353         62
  47.8539         67
  47.8725         64
  47.8911         64
  47.9096         72
  47.9282         56
  47.9468         62
  47.9654         65
  47.9839         62
  48.0025         67
  48.0211         55
  48.0397         47
  48.0582         62
  48.0768         72
  48.0954         59
  48.1140         64
  48.1325         61
  48.1511         58
  48.1697         71
  48.1883         71
  48.2068         68
  48.2254         63
  48.2440         58
  48.2626         47
  48.2811         50
  48.2997         63
  48.3183         69
  48.3369         61
  48.3555         58
  48.3740         64
  48.3926         66
  48.4112         68
  48.4298         69
  48.4483         57
  48.4669         62
  48.4855         54
  48.5041         68
  48.5226         48
  48.5412         61
  48.5598         64
  48.5784         70
  48.5969         49
  48.6155         67
  48.6341         54
  48.6527         63
  48.6712         64
  48.6898         63
  48.7084         61
  48.7270         60
  48.7455         56
  48.7641         65
  48.7827         72
  48.8013         76
  48.8198         59
  48.8384         62
  48.8570         63
  48.8756         60
  48.8941         84
  48.9127         86
  48.9313         94
  48.9499        111
  48.9684        110
  48.9870         89
  49.0056         76
  49.0242         77
  49.0427         88
  49.0613         92
  49.0799        104
  49.0985         99
  49.1171         86
  49.1356         66
  49.1542         67
  49.1728         47
  49.1914         61
  49.2099         58
  49.2285         76
  49.2471         64
  49.2657         73
  49.2842         70
  49.3028         77
  49.3214         67
  49.3400         62
  49.3585         59
  49.3771         62
  49.3957         67
  49.4143         52
  49.4328         67
  49.4514         47
  49.4700         51
  49.4886         69
  49.5071         51
  49.5257         63
  49.5443         56
  49.5629         86
  49.5814         69
  49.6000         63
  49.6186         64
  49.6372         55
  49.6557         64
  49.6743         54
  49.6929         63
  49.7115         44
  49.7300         72
  49.7486         61
  49.7672         63
  49.7858         56
  49.8043         54
  49.8229         60
  49.8415         64
  49.8601         70
  49.8786         72
  49.8972         61
  49.9158         71
  49.9344         64
  49.9530         61
  49.9715         65
  49.9901         58
  50.0087         54
  50.0273         66
  50.0458         77
  50.0644         63
  50.0830         67
  50.1016         55
  50.1201         68
  50.1387         66
  50.1573         68
  50.1759         71
  50.1944         74
  50.2130         60
  50.2316         64
  50.2502         64
  50.2687         69
  50.2873         62
  50.3059         60
  50.3245         61
  50.3430         66
  50.3616         64
  50.3802         60
  50.3988         63
  50.4173         43
  50.4359         52
  50.4545         43
  50.4731         70
  50.4916         76
  50.5102         54
  50.5288         61
  50.5474         64
  50.5659         53
  50.5845         54
  50.6031         46
  50.6217         44
  50.6402         70
  50.6588         66
  50.6774         64
  50.6960         64
  50.7146         52
  50.7331         58
  50.7517         50
  50.7703         62
  50.7889         42
  50.8074         60
  50.8260         68
  50.8446         59
  50.8632         54
  50.8817         69
  50.9003         49
  50.9189         70
  50.9375         50
  50.9560         52
  50.9746         70
  50.9932         64
  51.0118         62
  51.0303         65
  51.0489         64
  51.0675         82
  51.0861         49
  51.1046         55
  51.1232         67
  51.1418         66
  51.1604         66
  51.1789         61
  51.1975         58
  51.2161         59
  51.2347         63
  51.2532         57
  51.2718         51
  51.2904         67
  51.3090         77
  51.3275         78
  51.3461         65
  51.3647         62
  51.3833         71
  51.4018         70
  51.4204         66
  51.4390         68
  51.4576         59
  51.4762         59
  51.4947         64
  51.5133         52
  51.5319         71
  51.5505         66
  51.5690         64
  51.5876         66
  51.6062         71
  51.6248         45
  51.6433         79
  51.6619         62
  51.6805         58
  51.6991         63
  51.7176         69
  51.7362         54
  51.7548         66
  51.7734         50
  51.7919         73
  51.8105         47
  51.8291         56
  51.8477         60
  51.8662         66
  51.8848         75
  51.9034         54
  51.9220         55
  51.9405         55
  51.9591         76
  51.9777         68
  51.9963         76
  52.0148         75
  52.0334         64
  52.0520         55
  52.0706         48
  52.0891         67
  52.1077         53
  52.1263         73
  52.1449         70
  52.1634         56
  52.1820         69
  52.2006         51
  52.2192         51
  52.2378         69
  52.2563         61
  52.2749         56
  52.2935         63
  52.3121         57
  52.3306         65
  52.3492         61
  52.3678         56
  52.3864         54
  52.4049         60
  52.4235         65
  52.4421         67
  52.4607         59
  52.4792         51
  52.4978         46
  52.5164         71
  52.5350         68
  52.5535         52
  52.5721         54
  52.5907         68
  52.6093         45
  52.6278         58
  52.6464         56
  52.6650         63
  52.6836         52
  52.7021         65
  52.7207         66
  52.7393         57
  52.7579         59
  52.7764         61
  52.7950         51
  52.8136         62
  52.8322         69
  52.8507         63
  52.8693         66
  52.8879         68
  52.9065         48
  52.9250         67
  52.9436         71
  52.9622         65
  52.9808         60
  52.9994         64
  53.0179         73
  53.0365         65
  53.0551         71
  53.0737         46
  53.0922         63
  53.1108         56
  53.1294         53
  53.1480         78
  53.1665         61
  53.1851         51
  53.2037         59
  53.2223         63
  53.2408         54
  53.2594         63
  53.2780         65
  53.2966         58
  53.3151         39
  53.3337         56
  53.3523         53
  53.3709         61
  53.3894         64
  53.4080         61
  53.4266         64
  53.4452         45
  53.4637         56
  53.4823         65
  53.5009         61
  53.5195         70
  53.5380         52
  53.5566         50
  53.5752         72
  53.5938         50
  53.6123         72
  53.6309         63
  53.6495         62
  53.6681         52
  53.6866         51
  53.7052         57
  53.7238         59
  53.7424         48
  53.7610         66
  53.7795         49
  53.7981         57
  53.8167         52
  53.8353         55
  53.8538         54
  53.8724         79
  53.8910         62
  53.9096         57
  53.9281         54
  53.9467         75
  53.9653         60
  53.9839         98
  54.0024         96
  54.0210         83
  54.0396         76
  54.0582         69
  54.0767         59
  54.0953         67
  54.1139         64
  54.1325         64
  54.1510         65
  54.1696         60
  54.1882         57
  54.2068         61
  54.2253         45
  54.2439         50
  54.2625         60
  54.2811         55
  54.2996         46
  54.3182         65
  54.3368         56
  54.3554         58
  54.3739         55
  54.3925         62
  54.4111         68
  54.4297         68
  54.4482         58
  54.4668         61
  54.4854         46
  54.5040         61
  54.5225         77
  54.5411         61
  54.5597         68
  54.5783         63
  54.5969         57
  54.6154         57
  54.6340         66
  54.6526         58
  54.6712         49
  54.6897         61
  54.7083         47
  54.7269         61
  54.7455         45
  54.7640         71
  54.7826         61
  54.8012         52
  54.8198         74
  54.8383         56
  54.8569         62
  54.8755         53
  54.8941         58
  54.9126         58
  54.9312         64
  54.9498         48
  54.9684         66
  54.9869         59
  55.0055         65
  55.0241         55
  55.0427         62
  55.0612         63
  55.0798         58
  55.0984         44
  55.1170         68
  55.1355         62
  55.1541         73
  55.1727         61
  55.1913         45
  55.2098         65
  55.2284         72
  55.2470         53
  55.2656         57
  55.2841         63
  55.3027         64
  55.3213         65
  55.3399         64
  55.3585         40
  55.3770         49
  55.3956         47
  55.4142         56
  55.4328         48
  55.4513         55
  55.4699         44
  55.4885         66
  55.5071         44
  55.5256         56
  55.5442         63
  55.5628         67
  55.5814         63
  55.5999         64
  55.6185         42
  55.6371         52
  55.6557         70
  55.6742         55
  55.6928         49
  55.7114         69
  55.7300         58
  55.7485         81
  55.7671         48
  55.7857         60
  55.8043         67
  55.8228         62
  55.8414         54
  55.8600         74
  55.8786         67
  55.8971         72
  55.9157         63
  55.9343         57
  55.9529         50
  55.9714         68
  55.9900         67
  56.0086         55
  56.0272         51
  56.0457         49
  56.0643         54
  56.0829         61
  56.1015         68
  56.1201         59
  56.1386         68
  56.1572         82
  56.1758         66
  56.1944         60
  56.2129         70
  56.2315         67
  56.2501         72
  56.2687         62
  56.2872         60
  56.3058         80
  56.3244         64
  56.3430         67
  56.3615         59
  56.3801         52
  56.3987         61
  56.4173         57
  56.4358         48
  56.4544         67
  56.4730         57
  56.4916         51
  56.5101         56
  56.5287         59
  56.5473         48
  56.5659         55
  56.5844         59
  56.6030         48
  56.6216         57
  56.6402         66
  56.6587         62
  56.6773         52
  56.6959         64
  56.7145         60
  56.7330         52
  56.7516         54
  56.7702         84
  56.7888         56
  56.8073         57
  56.8259         58
  56.8445         48
  56.8631         59
  56.8817         47
  56.9002         64
  56.9188         58
  56.9374         42
  56.9560         63
  56.9745         46
  56.9931         59
  57.0117         55
  57.0303         68
  57.0488         49
  57.0674         67
  57.0860         69
  57.1046         54
  57.1231         68
  57.1417         67
  57.1603         56
  57.1789         60
  57.1974         50
  57.2160         76
  57.2346         39
  57.2532         43
  57.2717         49
  57.2903         60
  57.3089         59
  57.3275         50
  57.3460         49
  57.3646         58
  57.3832         61
  57.4018         49
  57.4203         58
  57.4389         58
  57.4575         57
  57.4761         54
  57.4946         52
  57.5132         56
  57.5318         59
  57.5504         53
  57.5689         61
  57.5875         55
  57.6061         56
  57.6247         69
  57.6433         60
  57.6618         48
  57.6804         53
  57.6990         76
  57.7176         52
  57.7361         64
  57.7547         54
  57.7733         49
  57.7919         55
  57.8104         75
  57.8290         55
  57.8476         61
  57.8662         60
  57.8847         57
  57.9033         43
  57.9219         47
  57.9405         52
  57.9590         65
  57.9776         64
  57.9962         61
  58.0148         50
  58.0333         55
  58.0519         47
  58.0705         62
  58.0891         47
  58.1076         51
  58.1262         64
  58.1448         57
  58.1634         52
  58.1819         58
  58.2005         67
  58.2191         50
  58.2377         67
  58.2562         46
  58.2748         57
  58.2934         52
  58.3120         48
  58.3305         57
  58.3491         50
  58.3677         54
  58.3863         71
  58.4049         53
  58.4234         56
  58.4420         54
  58.4606         52
  58.4792         54
  58.4977         53
  58.5163         59
  58.5349         59
  58.5535         54
  58.5720         49
  58.5906         52
  58.6092         60
  58.6278         64
  58.6463         57
  58.6649         52
  58.6835         52
  58.7021         53
  58.7206         50
  58.7392         55
  58.7578         55
  58.7764         67
  58.7949         63
  58.8135         58
  58.8321         58
  58.8507         45
  58.8692         53
  58.8878         48
  58.9064         57
  58.9250         55
  58.9435         64
  58.9621         60
  58.9807         59
  58.9993         43
  59.0178         62
  59.0364         63
  59.0550         55
  59.0736         55
  59.0921         56
  59.1107         59
  59.1293         54
  59.1479         57
  59.1664         52
  59.1850         46
  59.2036         62
  59.2222         44
  59.2408         50
  59.2593         52
  59.2779         64
  59.2965         57
  59.3151         62
  59.3336         53
  59.3522         47
  59.3708         66
  59.3894         52
  59.4079         53
  59.4265         50
  59.4451         63
  59.4637         50
  59.4822         43
  59.5008         46
  59.5194         64
  59.5380         41
  59.5565         60
  59.5751         56
  59.5937         55
  59.6123         54
  59.6308         61
  59.6494         54
  59.6680         63
  59.6866         48
  59.7051         50
  59.7237         58
  59.7423         53
  59.7609         63
  59.7794         50
  59.7980         54
  59.8166         45
  59.8352         43
  59.8537         48
  59.8723         43
  59.8909         68
  59.9095         47
  59.9280         50
  59.9466         52
  59.9652         49
  59.9838         54
  60.0024         57
