;,2THETA,
5.0000,92
5.0186,100
5.0372,80
5.0557,99
5.0743,114
5.0929,92
5.1115,80
5.1300,72
5.1486,87
5.1672,78
5.1858,98
5.2043,87
5.2229,77
5.2415,79
5.2601,86
5.2786,103
5.2972,91
5.3158,99
5.3344,84
5.3529,85
5.3715,70
5.3901,82
5.4087,93
5.4272,91
5.4458,73
5.4644,91
5.4830,90
5.5015,83
5.5201,79
5.5387,97
5.5573,95
5.5758,81
5.5944,73
5.6130,71
5.6316,65
5.6501,79
5.6687,70
5.6873,77
5.7059,82
5.7244,78
5.7430,76
5.7616,84
5.7802,66
5.7988,75
5.8173,85
5.8359,73
5.8545,74
5.8731,78
5.8916,68
5.9102,89
5.9288,77
5.9474,74
5.9659,65
5.9845,71
6.0031,73
6.0217,83
6.0402,70
6.0588,81
6.0774,55
6.0960,76
6.1145,64
6.1331,69
6.1517,61
6.1703,72
6.1888,71
6.2074,56
6.2260,75
6.2446,67
6.2631,66
6.2817,64
6.3003,62
6.3189,62
6.3374,62
6.3560,71
6.3746,79
6.3932,75
6.4117,62
6.4303,64
6.4489,67
6.4675,71
6.4860,70
6.5046,68
6.5232,65
6.5418,59
6.5604,64
6.5789,64
6.5975,63
6.6161,63
6.6347,60
6.6532,81
6.6718,57
6.6904,70
6.7090,63
6.7275,56
6.7461,50
6.7647,65
6.7833,60
6.8018,58
6.8204,56
6.8390,67
6.8576,48
6.8761,63
6.8947,53
6.9133,60
6.9319,58
6.9504,70
6.9690,47
6.9876,68
7.0062,63
7.0247,55
7.0433,52
7.0619,46
7.0805,60
7.0990,55
7.1176,61
7.1362,54
7.1548,48
7.1733,60
7.1919,45
7.2105,60
7.2291,51
7.2476,58
7.2662,65
7.2848,68
7.3034,61
7.3220,65
7.3405,62
7.3591,69
7.3777,60
7.3963,72
7.4148,67
7.4334,59
7.4520,67
7.4706,50
7.4891,54
7.5077,56
7.5263,49
7.5449,60
7.5634,55
7.5820,52
7.6006,58
7.6192,56
7.6377,59
7.6563,55
7.6749,62
7.6935,70
7.7120,62
7.7306,55
7.7492,66
7.7678,61
7.7863,74
7.8049,62
7.8235,65
7.8421,65
7.8606,69
7.8792,68
7.8978,58
7.9164,58
7.9349,76
7.9535,59
7.9721,69
7.9907,79
8.0092,67
8.0278,68
8.0464,63
8.0650,65
8.0835,54
8.1021,64
8.1207,73
8.1393,57
8.1579,66
8.1764,70
8.1950,58
8.2136,71
8.2322,67
8.2507,81
8.2693,68
8.2879,81
8.3065,68
8.3250,61
8.3436,68
8.3622,64
8.3808,63
8.3993,72
8.4179,67
8.4365,78
8.4551,77
8.4736,74
8.4922,72
8.5108,77
8.5294,67
8.5479,76
8.5665,70
8.5851,65
8.6037,78
8.6222,73
8.6408,65
8.6594,71
8.6780,77
8.6965,74
8.7151,70
8.7337,60
8.7523,57
8.7708,70
8.7894,63
8.8080,66
8.8266,70
8.8451,48
8.8637,73
8.8823,66
8.9009,98
8.9195,72
8.9380,82
8.9566,78
8.9752,76
8.9938,72
9.0123,49
9.0309,82
9.0495,84
9.0681,74
9.0866,74
9.1052,90
9.1238,82
9.1424,61
9.1609,74
9.1795,82
9.1981,73
9.2167,76
9.2352,77
9.2538,90
9.2724,84
9.2910,72
9.3095,73
9.3281,87
9.3467,67
9.3653,70
9.3838,82
9.4024,77
9.4210,80
9.4396,75
9.4581,88
9.4767,75
9.4953,86
9.5139,69
9.5324,90
9.5510,86
9.5696,80
9.5882,67
9.6067,83
9.6253,85
9.6439,61
9.6625,89
9.6811,84
9.6996,77
9.7182,85
9.7368,74
9.7554,81
9.7739,88
9.7925,86
9.8111,93
9.8297,80
9.8482,76
9.8668,92
9.8854,87
9.9040,75
9.9225,94
9.9411,65
9.9597,80
9.9783,91
9.9968,76
10.0154,89
10.0340,99
10.0526,107
10.0711,90
10.0897,79
10.1083,102
10.1269,82
10.1454,80
10.1640,78
10.1826,96
10.2012,78
10.2197,88
10.2383,98
10.2569,85
10.2755,83
10.2940,102
10.3126,104
10.3312,88
10.3498,95
10.3683,76
10.3869,75
10.4055,77
10.4241,87
10.4427,94
10.4612,106
10.4798,98
10.4984,84
10.5170,91
10.5355,89
10.5541,87
10.5727,79
10.5913,96
10.6098,71
10.6284,79
10.6470,112
10.6656,103
10.6841,87
10.7027,81
10.7213,82
10.7399,83
10.7584,96
10.7770,99
10.7956,84
10.8142,95
10.8327,80
10.8513,88
10.8699,87
10.8885,107
10.9070,104
10.9256,88
10.9442,89
10.9628,74
10.9813,99
10.9999,106
11.0185,83
11.0371,69
11.0556,90
11.0742,73
11.0928,79
11.1114,85
11.1299,107
11.1485,77
11.1671,82
11.1857,84
11.2043,115
11.2228,83
11.2414,69
11.2600,75
11.2786,93
11.2971,88
11.3157,100
11.3343,72
11.3529,83
11.3714,76
11.3900,93
11.4086,101
11.4272,90
11.4457,95
11.4643,77
11.4829,85
11.5015,81
11.5200,90
11.5386,88
11.5572,95
11.5758,54
11.5943,79
11.6129,75
11.6315,81
11.6501,74
11.6686,92
11.6872,80
11.7058,74
11.7244,86
11.7429,73
11.7615,72
11.7801,72
11.7987,75
11.8172,70
11.8358,85
11.8544,82
11.8730,79
11.8915,80
11.9101,73
11.9287,87
11.9473,89
11.9659,74
11.9844,78
12.0030,87
12.0216,72
12.0402,83
12.0587,65
12.0773,76
12.0959,85
12.1145,79
12.1330,89
12.1516,100
12.1702,74
12.1888,89
12.2073,77
12.2259,80
12.2445,89
12.2631,89
12.2816,81
12.3002,76
12.3188,82
12.3374,64
12.3559,66
12.3745,73
12.3931,81
12.4117,81
12.4302,77
12.4488,68
12.4674,78
12.4860,79
12.5045,91
12.5231,72
12.5417,98
12.5603,75
12.5788,68
12.5974,68
12.6160,75
12.6346,84
12.6531,84
12.6717,89
12.6903,91
12.7089,79
12.7274,79
12.7460,83
12.7646,70
12.7832,89
12.8018,68
12.8203,81
12.8389,75
12.8575,69
12.8761,76
12.8946,71
12.9132,77
12.9318,76
12.9504,71
12.9689,58
12.9875,79
13.0061,64
13.0247,69
13.0432,76
13.0618,85
13.0804,71
13.0990,56
13.1175,77
13.1361,56
13.1547,58
13.1733,54
13.1918,74
13.2104,71
13.2290,76
13.2476,91
13.2661,79
13.2847,72
13.3033,78
13.3219,67
13.3404,62
13.3590,70
13.3776,60
13.3962,68
13.4147,60
13.4333,52
13.4519,61
13.4705,64
13.4890,68
13.5076,70
13.5262,79
13.5448,63
13.5634,60
13.5819,76
13.6005,58
13.6191,78
13.6377,70
13.6562,78
13.6748,86
13.6934,80
13.7120,71
13.7305,66
13.7491,70
13.7677,56
13.7863,64
13.8048,56
13.8234,61
13.8420,67
13.8606,59
13.8791,69
13.8977,64
13.9163,67
13.9349,81
13.9534,75
13.9720,70
13.9906,74
14.0092,57
14.0277,65
14.0463,55
14.0649,76
14.0835,46
14.1020,54
14.1206,65
14.1392,53
14.1578,72
14.1763,82
14.1949,67
14.2135,75
14.2321,64
14.2506,62
14.2692,58
14.2878,55
14.3064,69
14.3250,73
14.3435,67
14.3621,56
14.3807,66
14.3993,66
14.4178,71
14.4364,62
14.4550,65
14.4736,55
14.4921,66
14.5107,69
14.5293,50
14.5479,67
14.5664,53
14.5850,59
14.6036,55
14.6222,74
14.6407,63
14.6593,70
14.6779,61
14.6965,64
14.7150,71
14.7336,58
14.7522,56
14.7708,75
14.7893,60
14.8079,67
14.8265,65
14.8451,65
14.8636,75
14.8822,58
14.9008,60
14.9194,58
14.9379,60
14.9565,53
14.9751,55
14.9937,62
15.0122,52
15.0308,61
15.0494,54
15.0680,51
15.0866,51
15.1051,53
15.1237,51
15.1423,60
15.1609,63
15.1794,50
15.1980,65
15.2166,71
15.2352,64
15.2537,58
15.2723,54
15.2909,51
15.3095,42
15.3280,57
15.3466,61
15.3652,51
15.3838,60
15.4023,66
15.4209,56
15.4395,66
15.4581,63
15.4766,59
15.4952,63
15.5138,56
15.5324,54
15.5509,70
15.5695,54
15.5881,50
15.6067,61
15.6252,57
15.6438,63
15.6624,73
15.6810,50
15.6995,58
15.7181,57
15.7367,65
15.7553,52
15.7738,70
15.7924,55
15.8110,52
15.8296,66
15.8482,46
15.8667,60
15.8853,52
15.9039,43
15.9225,50
15.9410,54
15.9596,53
15.9782,62
15.9968,51
16.0153,60
16.0339,55
16.0525,45
16.0711,64
16.0896,62
16.1082,53
16.1268,47
16.1454,51
16.1639,52
16.1825,50
16.2011,51
16.2197,57
16.2382,46
16.2568,49
16.2754,55
16.2940,65
16.3125,51
16.3311,53
16.3497,58
16.3683,57
16.3868,55
16.4054,52
16.4240,60
16.4426,65
16.4611,60
16.4797,56
16.4983,62
16.5169,62
16.5354,75
16.5540,56
16.5726,64
16.5912,59
16.6097,61
16.6283,66
16.6469,49
16.6655,65
16.6841,58
16.7026,74
16.7212,45
16.7398,49
16.7584,48
16.7769,62
16.7955,65
16.8141,62
16.8327,58
16.8512,57
16.8698,50
16.8884,52
16.9070,65
16.9255,59
16.9441,58
16.9627,61
16.9813,59
16.9998,56
17.0184,68
17.0370,63
17.0556,52
17.0741,70
17.0927,49
17.1113,66
17.1299,59
17.1484,53
17.1670,60
17.1856,65
17.2042,51
17.2227,62
17.2413,48
17.2599,49
17.2785,61
17.2970,67
17.3156,55
17.3342,50
17.3528,69
17.3713,49
17.3899,56
17.4085,68
17.4271,54
17.4457,75
17.4642,58
17.4828,54
17.5014,71
17.5200,67
17.5385,46
17.5571,52
17.5757,62
17.5943,57
17.6128,43
17.6314,59
17.6500,57
17.6686,55
17.6871,54
17.7057,50
17.7243,59
17.7429,61
17.7614,64
17.7800,57
17.7986,61
17.8172,54
17.8357,57
17.8543,44
17.8729,57
17.8915,71
17.9100,60
17.9286,61
17.9472,67
17.9658,52
17.9843,73
18.0029,57
18.0215,49
18.0401,54
18.0586,59
18.0772,60
18.0958,46
18.1144,66
18.1329,48
18.1515,65
18.1701,70
18.1887,54
18.2073,61
18.2258,60
18.2444,60
18.2630,64
18.2816,79
18.3001,70
18.3187,60
18.3373,72
18.3559,54
18.3744,53
18.3930,61
18.4116,77
18.4302,52
18.4487,62
18.4673,58
18.4859,54
18.5045,53
18.5230,50
18.5416,67
18.5602,68
18.5788,74
18.5973,58
18.6159,57
18.6345,46
18.6531,57
18.6716,58
18.6902,51
18.7088,54
18.7274,61
18.7459,70
18.7645,63
18.7831,57
18.8017,48
18.8202,46
18.8388,71
18.8574,55
18.8760,54
18.8945,57
18.9131,55
18.9317,65
18.9503,57
18.9689,59
18.9874,64
19.0060,58
19.0246,66
19.0432,61
19.0617,51
19.0803,64
19.0989,63
19.1175,65
19.1360,63
19.1546,65
19.1732,63
19.1918,69
19.2103,59
19.2289,58
19.2475,76
19.2661,72
19.2846,63
19.3032,59
19.3218,62
19.3404,48
19.3589,60
19.3775,65
19.3961,34
19.4147,60
19.4332,64
19.4518,82
19.4704,58
19.4890,58
19.5075,68
19.5261,62
19.5447,64
19.5633,72
19.5818,50
19.6004,57
19.6190,58
19.6376,64
19.6561,70
19.6747,71
19.6933,75
19.7119,56
19.7305,66
19.7490,85
19.7676,64
19.7862,44
19.8048,54
19.8233,51
19.8419,69
19.8605,59
19.8791,74
19.8976,54
19.9162,62
19.9348,55
19.9534,61
19.9719,51
19.9905,75
20.0091,62
20.0277,76
20.0462,59
20.0648,59
20.0834,71
20.1020,64
20.1205,60
20.1391,64
20.1577,63
20.1763,74
20.1948,58
20.2134,55
20.2320,81
20.2506,58
20.2691,64
20.2877,56
20.3063,52
20.3249,62
20.3434,78
20.3620,63
20.3806,78
20.3992,69
20.4177,82
20.4363,81
20.4549,75
20.4735,66
20.4921,67
20.5106,74
20.5292,72
20.5478,58
20.5664,70
20.5849,73
20.6035,66
20.6221,65
20.6407,74
20.6592,75
20.6778,75
20.6964,73
20.7150,53
20.7335,81
20.7521,55
20.7707,67
20.7893,65
20.8078,73
20.8264,65
20.8450,67
20.8636,72
20.8821,79
20.9007,67
20.9193,80
20.9379,78
20.9564,57
20.9750,86
20.9936,82
21.0122,78
21.0307,78
21.0493,65
21.0679,72
21.0865,73
21.1050,68
21.1236,62
21.1422,99
21.1608,77
21.1793,105
21.1979,114
21.2165,103
21.2351,93
21.2537,108
21.2722,111
21.2908,135
21.3094,126
21.3280,185
21.3465,191
21.3651,172
21.3837,124
21.4023,111
21.4208,76
21.4394,87
21.4580,62
21.4766,71
21.4951,73
21.5137,96
21.5323,67
21.5509,65
21.5694,78
21.5880,72
21.6066,72
21.6252,61
21.6437,74
21.6623,63
21.6809,58
21.6995,54
21.7180,56
21.7366,65
21.7552,65
21.7738,73
21.7923,71
21.8109,73
21.8295,80
21.8481,65
21.8666,64
21.8852,71
21.9038,61
21.9224,66
21.9409,63
21.9595,69
21.9781,64
21.9967,83
22.0152,69
22.0338,77
22.0524,85
22.0710,70
22.0896,65
22.1081,71
22.1267,72
22.1453,55
22.1639,51
22.1824,87
22.2010,67
22.2196,86
22.2382,72
22.2567,68
22.2753,62
22.2939,72
22.3125,76
22.3310,70
22.3496,67
22.3682,68
22.3868,49
22.4053,65
22.4239,73
22.4425,80
22.4611,70
22.4796,76
22.4982,86
22.5168,73
22.5354,70
22.5539,72
22.5725,77
22.5911,78
22.6097,61
22.6282,75
22.6468,86
22.6654,69
22.6840,80
22.7025,68
22.7211,75
22.7397,83
22.7583,64
22.7768,75
22.7954,73
22.8140,62
22.8326,95
22.8512,66
22.8697,69
22.8883,73
22.9069,73
22.9255,73
22.9440,67
22.9626,74
22.9812,70
22.9998,65
23.0183,74
23.0369,84
23.0555,64
23.0741,71
23.0926,82
23.1112,89
23.1298,73
23.1484,49
23.1669,76
23.1855,67
23.2041,89
23.2227,65
23.2412,65
23.2598,77
23.2784,72
23.2970,62
23.3155,79
23.3341,56
23.3527,78
23.3713,78
23.3898,70
23.4084,90
23.4270,83
23.4456,60
23.4641,57
23.4827,71
23.5013,67
23.5199,72
23.5384,66
23.5570,61
23.5756,63
23.5942,83
23.6128,75
23.6313,75
23.6499,85
23.6685,61
23.6871,64
23.7056,77
23.7242,69
23.7428,67
23.7614,78
23.7799,69
23.7985,64
23.8171,57
23.8357,62
23.8542,72
23.8728,63
23.8914,69
23.9100,63
23.9285,69
23.9471,70
23.9657,74
23.9843,75
24.0028,71
24.0214,64
24.0400,72
24.0586,75
24.0771,54
24.0957,75
24.1143,72
24.1329,52
24.1514,54
24.1700,70
24.1886,69
24.2072,70
24.2257,84
24.2443,84
24.2629,86
24.2815,76
24.3000,70
24.3186,82
24.3372,74
24.3558,86
24.3744,79
24.3929,56
24.4115,63
24.4301,82
24.4487,72
24.4672,81
24.4858,72
24.5044,80
24.5230,69
24.5415,67
24.5601,70
24.5787,72
24.5973,71
24.6158,79
24.6344,80
24.6530,71
24.6716,54
24.6901,69
24.7087,68
24.7273,83
24.7459,73
24.7644,76
24.7830,62
24.8016,69
24.8202,81
24.8387,68
24.8573,74
24.8759,63
24.8945,70
24.9130,70
24.9316,89
24.9502,82
24.9688,57
24.9873,71
25.0059,66
25.0245,60
25.0431,80
25.0616,68
25.0802,71
25.0988,81
25.1174,70
25.1360,58
25.1545,69
25.1731,74
25.1917,71
25.2103,72
25.2288,82
25.2474,68
25.2660,68
25.2846,57
25.3031,64
25.3217,70
25.3403,73
25.3589,56
25.3774,70
25.3960,66
25.4146,79
25.4332,63
25.4517,66
25.4703,68
25.4889,77
25.5075,67
25.5260,58
25.5446,72
25.5632,63
25.5818,70
25.6003,63
25.6189,60
25.6375,72
25.6561,59
25.6746,79
25.6932,64
25.7118,59
25.7304,81
25.7489,98
25.7675,71
25.7861,72
25.8047,59
25.8232,70
25.8418,68
25.8604,59
25.8790,62
25.8976,80
25.9161,74
25.9347,65
25.9533,60
25.9719,63
25.9904,72
26.0090,78
26.0276,61
26.0462,66
26.0647,72
26.0833,71
26.1019,68
26.1205,66
26.1390,52
26.1576,67
26.1762,77
26.1948,67
26.2133,57
26.2319,64
26.2505,68
26.2691,75
26.2876,51
26.3062,59
26.3248,72
26.3434,63
26.3619,61
26.3805,69
26.3991,55
26.4177,66
26.4362,91
26.4548,77
26.4734,51
26.4920,71
26.5105,72
26.5291,78
26.5477,62
26.5663,70
26.5848,72
26.6034,62
26.6220,64
26.6406,86
26.6591,50
26.6777,58
26.6963,76
26.7149,70
26.7335,69
26.7520,65
26.7706,62
26.7892,59
26.8078,78
26.8263,71
26.8449,68
26.8635,79
26.8821,70
26.9006,71
26.9192,74
26.9378,61
26.9564,53
26.9749,60
26.9935,65
27.0121,73
27.0307,86
27.0492,69
27.0678,63
27.0864,70
27.1050,71
27.1235,76
27.1421,74
27.1607,97
27.1793,77
27.1978,97
27.2164,67
27.2350,80
27.2536,81
27.2721,57
27.2907,60
27.3093,75
27.3279,60
27.3464,73
27.3650,79
27.3836,75
27.4022,59
27.4207,60
27.4393,61
27.4579,67
27.4765,72
27.4951,64
27.5136,77
27.5322,55
27.5508,62
27.5694,64
27.5879,62
27.6065,74
27.6251,54
27.6437,78
27.6622,67
27.6808,46
27.6994,65
27.7180,75
27.7365,62
27.7551,62
27.7737,73
27.7923,63
27.8108,67
27.8294,48
27.8480,57
27.8666,54
27.8851,62
27.9037,78
27.9223,68
27.9409,62
27.9594,65
27.9780,68
27.9966,45
28.0152,56
28.0337,56
28.0523,52
28.0709,54
28.0895,74
28.1080,65
28.1266,64
28.1452,71
28.1638,65
28.1823,56
28.2009,47
28.2195,58
28.2381,49
28.2567,48
28.2752,81
28.2938,69
28.3124,60
28.3310,52
28.3495,52
28.3681,63
28.3867,67
28.4053,67
28.4238,55
28.4424,68
28.4610,60
28.4796,50
28.4981,62
28.5167,65
28.5353,60
28.5539,71
28.5724,73
28.5910,64
28.6096,70
28.6282,63
28.6467,63
28.6653,65
28.6839,53
28.7025,71
28.7210,65
28.7396,56
28.7582,63
28.7768,56
28.7953,48
28.8139,78
28.8325,49
28.8511,51
28.8696,58
28.8882,68
28.9068,70
28.9254,61
28.9439,62
28.9625,51
28.9811,60
28.9997,60
29.0183,60
29.0368,57
29.0554,46
29.0740,63
29.0926,61
29.1111,56
29.1297,60
29.1483,58
29.1669,60
29.1854,59
29.2040,64
29.2226,48
29.2412,60
29.2597,58
29.2783,53
29.2969,67
29.3155,60
29.3340,68
29.3526,64
29.3712,80
29.3898,60
29.4083,60
29.4269,56
29.4455,64
29.4641,49
29.4826,58
29.5012,59
29.5198,57
29.5384,60
29.5569,43
29.5755,52
29.5941,52
29.6127,44
29.6312,51
29.6498,66
29.6684,63
29.6870,63
29.7055,57
29.7241,61
29.7427,56
29.7613,51
29.7799,58
29.7984,56
29.8170,60
29.8356,58
29.8542,60
29.8727,58
29.8913,64
29.9099,56
29.9285,43
29.9470,66
29.9656,70
29.9842,47
30.0028,45
30.0213,49
30.0399,63
30.0585,57
30.0771,49
30.0956,53
30.1142,45
30.1328,44
30.1514,67
30.1699,60
30.1885,64
30.2071,53
30.2257,60
30.2442,48
30.2628,55
30.2814,47
30.3000,71
30.3185,58
30.3371,97
30.3557,95
30.3743,136
30.3928,102
30.4114,77
30.4300,92
30.4486,93
30.4671,83
30.4857,72
30.5043,67
30.5229,54
30.5415,72
30.5600,59
30.5786,51
30.5972,56
30.6158,52
30.6343,40
30.6529,57
30.6715,45
30.6901,45
30.7086,64
30.7272,44
30.7458,47
30.7644,55
30.7829,49
30.8015,45
30.8201,48
30.8387,51
30.8572,57
30.8758,56
30.8944,49
30.9130,36
30.9315,57
30.9501,60
30.9687,51
30.9873,49
31.0058,48
31.0244,50
31.0430,57
31.0616,36
31.0801,41
31.0987,47
31.1173,38
31.1359,50
31.1544,54
31.1730,57
31.1916,56
31.2102,50
31.2287,51
31.2473,52
31.2659,37
31.2845,47
31.3030,56
31.3216,54
31.3402,50
31.3588,50
31.3774,43
31.3959,51
31.4145,35
31.4331,46
31.4517,44
31.4702,34
31.4888,50
31.5074,58
31.5260,40
31.5445,60
31.5631,38
31.5817,52
31.6003,51
31.6188,53
31.6374,62
31.6560,32
31.6746,48
31.6931,45
31.7117,51
31.7303,51
31.7489,42
31.7674,34
31.7860,52
31.8046,63
31.8232,66
31.8417,29
31.8603,50
31.8789,44
31.8975,43
31.9160,48
31.9346,58
31.9532,42
31.9718,50
31.9903,47
32.0089,54
32.0275,44
32.0461,41
32.0646,56
32.0832,56
32.1018,54
32.1204,45
32.1390,44
32.1575,57
32.1761,42
32.1947,34
32.2133,44
32.2318,51
32.2504,57
32.2690,43
32.2876,58
32.3061,68
32.3247,52
32.3433,40
32.3619,50
32.3804,50
32.3990,41
32.4176,48
32.4362,45
32.4547,54
32.4733,51
32.4919,50
32.5105,60
32.5290,50
32.5476,53
32.5662,63
32.5848,46
32.6033,45
32.6219,49
32.6405,40
32.6591,59
32.6776,50
32.6962,32
32.7148,47
32.7334,41
32.7519,37
32.7705,52
32.7891,48
32.8077,31
32.8262,45
32.8448,36
32.8634,38
32.8820,50
32.9006,45
32.9191,46
32.9377,52
32.9563,46
32.9749,49
32.9934,34
33.0120,36
33.0306,44
33.0492,42
33.0677,50
33.0863,48
33.1049,52
33.1235,50
33.1420,32
33.1606,55
33.1792,42
33.1978,43
33.2163,46
33.2349,37
33.2535,60
33.2721,53
33.2906,60
33.3092,51
33.3278,44
33.3464,48
33.3649,52
33.3835,42
33.4021,50
33.4207,39
33.4392,38
33.4578,38
33.4764,41
33.4950,43
33.5135,36
33.5321,47
33.5507,27
33.5693,34
33.5878,36
33.6064,49
33.6250,40
33.6436,34
33.6622,53
33.6807,42
33.6993,53
33.7179,44
33.7365,38
33.7550,40
33.7736,42
33.7922,47
33.8108,41
33.8293,41
33.8479,46
33.8665,42
33.8851,47
33.9036,53
33.9222,38
33.9408,34
33.9594,38
33.9779,32
33.9965,37
34.0151,32
34.0337,38
34.0522,39
34.0708,44
34.0894,50
34.1080,41
34.1265,48
34.1451,46
34.1637,42
34.1823,42
34.2008,33
34.2194,41
34.2380,24
34.2566,43
34.2751,42
34.2937,45
34.3123,41
34.3309,35
34.3494,43
34.3680,45
34.3866,45
34.4052,34
34.4238,34
34.4423,37
34.4609,44
34.4795,38
34.4981,51
34.5166,50
34.5352,36
34.5538,45
34.5724,43
34.5909,48
34.6095,47
34.6281,48
34.6467,54
34.6652,52
34.6838,47
34.7024,65
34.7210,66
34.7395,50
34.7581,55
34.7767,63
34.7953,62
34.8138,44
34.8324,55
34.8510,42
34.8696,38
34.8881,33
34.9067,46
34.9253,46
34.9439,49
34.9624,38
34.9810,41
34.9996,37
35.0182,45
35.0367,38
35.0553,33
35.0739,41
35.0925,40
35.1110,37
35.1296,35
35.1482,40
35.1668,34
35.1854,30
35.2039,37
35.2225,44
35.2411,31
35.2597,40
35.2782,34
35.2968,36
35.3154,34
35.3340,46
35.3525,50
35.3711,42
35.3897,29
35.4083,33
35.4268,49
35.4454,34
35.4640,28
35.4826,32
35.5011,37
35.5197,37
35.5383,49
35.5569,37
35.5754,42
35.5940,35
35.6126,34
35.6312,42
35.6497,30
35.6683,52
35.6869,32
35.7055,37
35.7240,31
35.7426,33
35.7612,35
35.7798,38
35.7983,60
35.8169,35
35.8355,35
35.8541,33
35.8726,32
35.8912,30
35.9098,32
35.9284,32
35.9469,32
35.9655,37
35.9841,43
36.0027,40
36.0213,37
36.0398,33
36.0584,29
36.0770,25
36.0956,42
36.1141,30
36.1327,34
36.1513,39
36.1699,42
36.1884,36
36.2070,39
36.2256,32
36.2442,31
36.2627,24
36.2813,43
36.2999,34
36.3185,33
36.3370,37
36.3556,40
36.3742,33
36.3928,26
36.4113,33
36.4299,31
36.4485,41
36.4671,48
36.4856,28
36.5042,26
36.5228,47
36.5414,36
36.5599,31
36.5785,33
36.5971,26
36.6157,28
36.6342,28
36.6528,29
36.6714,40
36.6900,44
36.7085,33
36.7271,39
36.7457,27
36.7643,55
36.7829,38
36.8014,30
36.8200,42
36.8386,33
36.8572,34
36.8757,34
36.8943,27
36.9129,35
36.9315,19
36.9500,44
36.9686,34
36.9872,33
37.0058,34
37.0243,35
37.0429,32
37.0615,38
37.0801,35
37.0986,26
37.1172,41
37.1358,30
37.1544,29
37.1729,37
37.1915,31
37.2101,47
37.2287,30
37.2472,34
37.2658,39
37.2844,36
37.3030,28
37.3215,34
37.3401,45
37.3587,40
37.3773,42
37.3958,54
37.4144,49
37.4330,58
37.4516,42
37.4701,47
37.4887,33
37.5073,38
37.5259,50
37.5445,48
37.5630,34
37.5816,34
37.6002,29
37.6188,33
37.6373,33
37.6559,29
37.6745,35
37.6931,35
37.7116,31
37.7302,44
37.7488,29
37.7674,28
37.7859,26
37.8045,39
37.8231,32
37.8417,37
37.8602,29
37.8788,39
37.8974,29
37.9160,40
37.9345,38
37.9531,29
37.9717,26
37.9903,29
38.0088,47
38.0274,24
38.0460,33
38.0646,31
38.0831,29
38.1017,38
38.1203,29
38.1389,35
38.1574,35
38.1760,40
38.1946,47
38.2132,25
38.2317,36
38.2503,30
38.2689,25
38.2875,29
38.3061,28
38.3246,26
38.3432,28
38.3618,34
38.3804,42
38.3989,31
38.4175,33
38.4361,35
38.4547,29
38.4732,34
38.4918,36
38.5104,37
38.5290,20
38.5475,34
38.5661,45
38.5847,30
38.6033,35
38.6218,26
38.6404,31
38.6590,29
38.6776,22
38.6961,29
38.7147,23
38.7333,23
38.7519,28
38.7704,32
38.7890,36
38.8076,33
38.8262,22
38.8447,35
38.8633,37
38.8819,35
38.9005,23
38.9190,38
38.9376,27
38.9562,31
38.9748,38
38.9933,23
39.0119,35
39.0305,37
39.0491,33
39.0677,37
39.0862,34
39.1048,32
39.1234,21
39.1420,29
39.1605,47
39.1791,24
39.1977,34
39.2163,23
39.2348,22
39.2534,21
39.2720,28
39.2906,30
39.3091,31
39.3277,21
39.3463,27
39.3649,36
39.3834,25
39.4020,29
39.4206,33
39.4392,31
39.4577,44
39.4763,29
39.4949,27
39.5135,29
39.5320,25
39.5506,27
39.5692,26
39.5878,32
39.6063,37
39.6249,35
39.6435,26
39.6621,31
39.6806,29
39.6992,30
39.7178,25
39.7364,35
39.7549,19
39.7735,18
39.7921,32
39.8107,29
39.8293,35
39.8478,27
39.8664,27
39.8850,28
39.9036,30
39.9221,36
39.9407,23
39.9593,30
39.9779,26
39.9964,27
40.0150,28
40.0336,34
40.0522,30
40.0707,39
40.0893,26
40.1079,28
40.1265,21
40.1450,38
40.1636,20
40.1822,23
40.2008,21
40.2193,27
40.2379,23
40.2565,25
40.2751,25
40.2936,35
40.3122,24
40.3308,36
40.3494,35
40.3679,31
40.3865,28
40.4051,27
40.4237,26
40.4422,34
40.4608,27
40.4794,32
40.4980,27
40.5165,26
40.5351,26
40.5537,41
40.5723,33
40.5908,27
40.6094,33
40.6280,40
40.6466,32
40.6652,30
40.6837,29
40.7023,20
40.7209,26
40.7395,23
40.7580,30
40.7766,27
40.7952,30
40.8138,26
40.8323,29
40.8509,33
40.8695,28
40.8881,30
40.9066,27
40.9252,31
40.9438,29
40.9624,35
40.9809,22
40.9995,27
41.0181,38
41.0367,33
41.0552,35
41.0738,26
41.0924,27
41.1110,39
41.1295,24
41.1481,27
41.1667,33
41.1853,33
41.2038,21
41.2224,17
41.2410,31
41.2596,26
41.2781,34
41.2967,28
41.3153,28
41.3339,35
41.3524,26
41.3710,33
41.3896,36
41.4082,28
41.4268,25
41.4453,22
41.4639,20
41.4825,38
41.5011,31
41.5196,30
41.5382,34
41.5568,29
41.5754,27
41.5939,33
41.6125,24
41.6311,21
41.6497,26
41.6682,27
41.6868,26
41.7054,28
41.7240,27
41.7425,29
41.7611,24
41.7797,37
41.7983,24
41.8168,18
41.8354,24
41.8540,19
41.8726,19
41.8911,25
41.9097,27
41.9283,31
41.9469,27
41.9654,30
41.9840,26
42.0026,23
42.0212,26
42.0397,27
42.0583,27
42.0769,32
42.0955,29
42.1140,13
42.1326,26
42.1512,25
42.1698,29
42.1884,36
42.2069,33
42.2255,23
42.2441,16
42.2627,27
42.2812,30
42.2998,25
42.3184,26
42.3370,24
42.3555,31
42.3741,18
42.3927,26
42.4113,27
42.4298,27
42.4484,30
42.4670,31
42.4856,28
42.5041,24
42.5227,13
42.5413,21
42.5599,28
42.5784,29
42.5970,35
42.6156,27
42.6342,28
42.6527,25
42.6713,23
42.6899,24
42.7085,30
42.7270,28
42.7456,26
42.7642,29
42.7828,21
42.8013,27
42.8199,25
42.8385,29
42.8571,25
42.8756,26
42.8942,25
42.9128,24
42.9314,18
42.9500,30
42.9685,28
42.9871,18
43.0057,25
43.0243,26
43.0428,23
43.0614,34
43.0800,26
43.0986,28
43.1171,24
43.1357,35
43.1543,31
43.1729,33
43.1914,35
43.2100,31
43.2286,33
43.2472,31
43.2657,34
43.2843,30
43.3029,34
43.3215,33
43.3400,39
43.3586,26
43.3772,23
43.3958,34
43.4143,26
43.4329,38
43.4515,30
43.4701,48
43.4886,60
43.5072,45
43.5258,38
43.5444,24
43.5629,46
43.5815,29
43.6001,40
43.6187,37
43.6372,32
43.6558,36
43.6744,27
43.6930,26
43.7116,30
43.7301,28
43.7487,40
43.7673,18
43.7859,25
43.8044,24
43.8230,20
43.8416,19
43.8602,17
43.8787,33
43.8973,31
43.9159,29
43.9345,22
43.9530,27
43.9716,29
43.9902,23
44.0088,28
44.0273,29
44.0459,22
44.0645,29
44.0831,24
44.1016,31
44.1202,24
44.1388,32
44.1574,27
44.1759,29
44.1945,15
44.2131,25
44.2317,25
44.2502,28
44.2688,37
44.2874,31
44.3060,22
44.3245,28
44.3431,35
44.3617,26
44.3803,30
44.3988,31
44.4174,28
44.4360,23
44.4546,29
44.4732,21
44.4917,32
44.5103,30
44.5289,21
44.5475,28
44.5660,26
44.5846,31
44.6032,31
44.6218,38
44.6403,21
44.6589,25
44.6775,25
44.6961,32
44.7146,25
44.7332,17
44.7518,17
44.7704,30
44.7889,29
44.8075,30
44.8261,23
44.8447,28
44.8632,21
44.8818,30
44.9004,30
44.9190,29
44.9375,18
44.9561,22
44.9747,18
44.9933,33
45.0118,34
45.0304,27
45.0490,31
45.0676,17
45.0861,25
45.1047,30
45.1233,35
45.1419,23
45.1604,28
45.1790,20
45.1976,32
45.2162,28
45.2347,17
45.2533,20
45.2719,24
45.2905,32
45.3091,39
45.3276,17
45.3462,21
45.3648,32
45.3834,17
45.4019,22
45.4205,32
45.4391,17
45.4577,23
45.4762,22
45.4948,29
45.5134,31
45.5320,24
45.5505,24
45.5691,24
45.5877,18
45.6063,21
45.6248,24
45.6434,23
45.6620,27
45.6806,35
45.6991,34
45.7177,25
45.7363,34
45.7549,23
45.7734,26
45.7920,20
45.8106,19
45.8292,27
45.8477,22
45.8663,24
45.8849,21
45.9035,22
45.9220,32
45.9406,27
45.9592,30
45.9778,19
45.9963,34
46.0149,30
46.0335,18
46.0521,21
46.0707,16
46.0892,30
46.1078,33
46.1264,33
46.1450,34
46.1635,20
46.1821,16
46.2007,20
46.2193,24
46.2378,29
46.2564,24
46.2750,20
46.2936,25
46.3121,29
46.3307,24
46.3493,25
46.3679,27
46.3864,25
46.4050,16
46.4236,23
46.4422,20
46.4607,20
46.4793,22
46.4979,15
46.5165,31
46.5350,32
46.5536,31
46.5722,27
46.5908,25
46.6093,23
46.6279,27
46.6465,24
46.6651,24
46.6836,25
46.7022,22
46.7208,22
46.7394,26
46.7579,29
46.7765,21
46.7951,20
46.8137,26
46.8323,22
46.8508,19
46.8694,33
46.8880,29
46.9066,18
46.9251,18
46.9437,26
46.9623,14
46.9809,22
46.9994,20
47.0180,37
47.0366,17
47.0552,27
47.0737,20
47.0923,34
47.1109,20
47.1295,14
47.1480,22
47.1666,24
47.1852,24
47.2038,19
47.2223,30
47.2409,19
47.2595,23
47.2781,12
47.2966,23
47.3152,24
47.3338,21
47.3524,25
47.3709,17
47.3895,34
47.4081,25
47.4267,19
47.4452,23
47.4638,23
47.4824,19
47.5010,23
47.5195,17
47.5381,28
47.5567,17
47.5753,20
47.5939,21
47.6124,18
47.6310,27
47.6496,26
47.6682,22
47.6867,19
47.7053,18
47.7239,24
47.7425,24
47.7610,27
47.7796,21
47.7982,22
47.8168,20
47.8353,18
47.8539,22
47.8725,16
47.8911,21
47.9096,20
47.9282,20
47.9468,20
47.9654,27
47.9839,21
48.0025,23
48.0211,25
48.0397,24
48.0582,25
48.0768,26
48.0954,25
48.1140,24
48.1325,22
48.1511,21
48.1697,22
48.1883,23
48.2068,21
48.2254,28
48.2440,25
48.2626,23
48.2811,21
48.2997,18
48.3183,29
48.3369,20
48.3555,20
48.3740,23
48.3926,23
48.4112,18
48.4298,28
48.4483,14
48.4669,25
48.4855,16
48.5041,17
48.5226,24
48.5412,18
48.5598,22
48.5784,19
48.5969,20
48.6155,24
48.6341,24
48.6527,38
48.6712,26
48.6898,24
48.7084,16
48.7270,19
48.7455,19
48.7641,27
48.7827,28
48.8013,21
48.8198,22
48.8384,16
48.8570,23
48.8756,33
48.8941,35
48.9127,41
48.9313,38
48.9499,41
48.9684,26
48.9870,34
49.0056,34
49.0242,27
49.0427,27
49.0613,26
49.0799,29
49.0985,26
49.1171,28
49.1356,28
49.1542,23
49.1728,36
49.1914,21
49.2099,22
49.2285,24
49.2471,31
49.2657,23
49.2842,20
49.3028,25
49.3214,22
49.3400,18
49.3585,27
49.3771,29
49.3957,21
49.4143,15
49.4328,35
49.4514,27
49.4700,25
49.4886,29
49.5071,21
49.5257,28
49.5443,18
49.5629,16
49.5814,22
49.6000,26
49.6186,19
49.6372,25
49.6557,16
49.6743,22
49.6929,22
49.7115,28
49.7300,29
49.7486,32
49.7672,20
49.7858,21
49.8043,21
49.8229,21
49.8415,22
49.8601,15
49.8786,26
49.8972,24
49.9158,31
49.9344,23
49.9530,18
49.9715,24
49.9901,27
50.0087,15
50.0273,18
50.0458,31
50.0644,22
50.0830,22
50.1016,28
50.1201,30
50.1387,22
50.1573,27
50.1759,19
50.1944,19
50.2130,21
50.2316,25
50.2502,18
50.2687,25
50.2873,21
50.3059,24
50.3245,26
50.3430,21
50.3616,18
50.3802,19
50.3988,24
50.4173,25
50.4359,19
50.4545,17
50.4731,19
50.4916,34
50.5102,13
50.5288,16
50.5474,24
50.5659,26
50.5845,15
50.6031,23
50.6217,28
50.6402,21
50.6588,21
50.6774,26
50.6960,19
50.7146,34
50.7331,15
50.7517,30
50.7703,18
50.7889,19
50.8074,29
50.8260,24
50.8446,23
50.8632,24
50.8817,23
50.9003,16
50.9189,15
50.9375,27
50.9560,20
50.9746,21
50.9932,23
51.0118,14
51.0303,24
51.0489,26
51.0675,17
51.0861,22
51.1046,22
51.1232,30
51.1418,24
51.1604,31
51.1789,21
51.1975,25
51.2161,19
51.2347,32
51.2532,25
51.2718,21
51.2904,24
51.3090,26
51.3275,21
51.3461,23
51.3647,30
51.3833,26
51.4018,28
51.4204,29
51.4390,17
51.4576,19
51.4762,27
51.4947,23
51.5133,18
51.5319,23
51.5505,29
51.5690,22
51.5876,21
51.6062,24
51.6248,19
51.6433,15
51.6619,21
51.6805,31
51.6991,16
51.7176,23
51.7362,25
51.7548,25
51.7734,29
51.7919,23
51.8105,26
51.8291,19
51.8477,21
51.8662,27
51.8848,25
51.9034,21
51.9220,32
51.9405,19
51.9591,19
51.9777,21
51.9963,26
52.0148,19
52.0334,26
52.0520,19
52.0706,21
52.0891,26
52.1077,19
52.1263,22
52.1449,22
52.1634,16
52.1820,23
52.2006,25
52.2192,23
52.2378,22
52.2563,14
52.2749,26
52.2935,16
52.3121,23
52.3306,15
52.3492,17
52.3678,25
52.3864,13
52.4049,23
52.4235,26
52.4421,22
52.4607,25
52.4792,19
52.4978,17
52.5164,19
52.5350,29
52.5535,18
52.5721,20
52.5907,21
52.6093,23
52.6278,14
52.6464,30
52.6650,23
52.6836,21
52.7021,23
52.7207,22
52.7393,34
52.7579,22
52.7764,25
52.7950,17
52.8136,16
52.8322,21
52.8507,12
52.8693,21
52.8879,23
52.9065,20
52.9250,18
52.9436,23
52.9622,20
52.9808,32
52.9994,19
53.0179,24
53.0365,23
53.0551,20
53.0737,22
53.0922,32
53.1108,20
53.1294,31
53.1480,24
53.1665,19
53.1851,23
53.2037,10
53.2223,21
53.2408,17
53.2594,34
53.2780,19
53.2966,21
53.3151,25
53.3337,23
53.3523,21
53.3709,29
53.3894,18
53.4080,24
53.4266,12
53.4452,15
53.4637,25
53.4823,26
53.5009,24
53.5195,24
53.5380,13
53.5566,22
53.5752,22
53.5938,25
53.6123,29
53.6309,22
53.6495,20
53.6681,20
53.6866,15
53.7052,23
53.7238,23
53.7424,28
53.7610,26
53.7795,23
53.7981,15
53.8167,28
53.8353,24
53.8538,24
53.8724,23
53.8910,13
53.9096,29
53.9281,28
53.9467,29
53.9653,26
53.9839,35
54.0024,26
54.0210,32
54.0396,27
54.0582,17
54.0767,36
54.0953,18
54.1139,34
54.1325,17
54.1510,20
54.1696,37
54.1882,25
54.2068,19
54.2253,18
54.2439,22
54.2625,26
54.2811,21
54.2996,22
54.3182,12
54.3368,31
54.3554,18
54.3739,14
54.3925,23
54.4111,19
54.4297,27
54.4482,22
54.4668,24
54.4854,16
54.5040,24
54.5225,22
54.5411,18
54.5597,24
54.5783,22
54.5969,20
54.6154,24
54.6340,23
54.6526,21
54.6712,17
54.6897,17
54.7083,23
54.7269,21
54.7455,16
54.7640,18
54.7826,24
54.8012,16
54.8198,28
54.8383,23
54.8569,25
54.8755,17
54.8941,15
54.9126,18
54.9312,13
54.9498,22
54.9684,19
54.9869,15
55.0055,11
55.0241,25
55.0427,17
55.0612,24
55.0798,23
55.0984,11
55.1170,19
55.1355,24
55.1541,28
55.1727,30
55.1913,21
55.2098,20
55.2284,17
55.2470,25
55.2656,20
55.2841,21
55.3027,24
55.3213,23
55.3399,18
55.3585,17
55.3770,24
55.3956,17
55.4142,26
55.4328,22
55.4513,22
55.4699,24
55.4885,19
55.5071,24
55.5256,20
55.5442,31
55.5628,27
55.5814,18
55.5999,21
55.6185,16
55.6371,21
55.6557,19
55.6742,17
55.6928,15
55.7114,13
55.7300,24
55.7485,18
55.7671,18
55.7857,23
55.8043,28
55.8228,19
55.8414,14
55.8600,17
55.8786,21
55.8971,18
55.9157,25
55.9343,25
55.9529,20
55.9714,25
55.9900,26
56.0086,17
56.0272,27
56.0457,24
56.0643,19
56.0829,17
56.1015,21
56.1201,17
56.1386,19
56.1572,11
56.1758,28
56.1944,22
56.2129,17
56.2315,18
56.2501,21
56.2687,23
56.2872,24
56.3058,16
56.3244,20
56.3430,26
56.3615,19
56.3801,31
56.3987,29
56.4173,29
56.4358,28
56.4544,24
56.4730,22
56.4916,16
56.5101,23
56.5287,20
56.5473,24
56.5659,24
56.5844,15
56.6030,19
56.6216,22
56.6402,19
56.6587,22
56.6773,19
56.6959,18
56.7145,17
56.7330,16
56.7516,16
56.7702,17
56.7888,23
56.8073,19
56.8259,15
56.8445,15
56.8631,18
56.8817,16
56.9002,22
56.9188,17
56.9374,17
56.9560,24
56.9745,20
56.9931,16
57.0117,23
57.0303,25
57.0488,26
57.0674,20
57.0860,14
57.1046,15
57.1231,27
57.1417,20
57.1603,20
57.1789,17
57.1974,21
57.2160,16
57.2346,20
57.2532,20
57.2717,21
57.2903,24
57.3089,24
57.3275,29
57.3460,23
57.3646,22
57.3832,28
57.4018,14
57.4203,21
57.4389,24
57.4575,22
57.4761,14
57.4946,18
57.5132,13
57.5318,22
57.5504,17
57.5689,16
57.5875,19
57.6061,20
57.6247,26
57.6433,21
57.6618,22
57.6804,22
57.6990,14
57.7176,34
57.7361,25
57.7547,18
57.7733,15
57.7919,18
57.8104,20
57.8290,21
57.8476,10
57.8662,21
57.8847,14
57.9033,21
57.9219,15
57.9405,21
57.9590,22
57.9776,18
57.9962,17
58.0148,16
58.0333,14
58.0519,16
58.0705,14
58.0891,12
58.1076,22
58.1262,26
58.1448,22
58.1634,19
58.1819,22
58.2005,18
58.2191,17
58.2377,21
58.2562,28
58.2748,21
58.2934,13
58.3120,18
58.3305,35
58.3491,24
58.3677,24
58.3863,26
58.4049,13
58.4234,23
58.4420,20
58.4606,21
58.4792,26
58.4977,16
58.5163,25
58.5349,17
58.5535,19
58.5720,17
58.5906,12
58.6092,24
58.6278,13
58.6463,22
58.6649,29
58.6835,14
58.7021,14
58.7206,17
58.7392,17
58.7578,25
58.7764,22
58.7949,18
58.8135,23
58.8321,25
58.8507,11
58.8692,20
58.8878,22
58.9064,22
58.9250,16
58.9435,21
58.9621,19
58.9807,24
58.9993,18
59.0178,21
59.0364,24
59.0550,21
59.0736,20
59.0921,18
59.1107,23
59.1293,21
59.1479,18
59.1664,22
59.1850,29
59.2036,25
59.2222,18
59.2408,11
59.2593,23
59.2779,16
59.2965,25
59.3151,24
59.3336,19
59.3522,11
59.3708,21
59.3894,21
59.4079,18
59.4265,22
59.4451,18
59.4637,16
59.4822,18
59.5008,25
59.5194,16
59.5380,21
59.5565,16
59.5751,26
59.5937,17
59.6123,21
59.6308,22
59.6494,19
59.6680,16
59.6866,11
59.7051,22
59.7237,25
59.7423,18
59.7609,17
59.7794,16
59.7980,20
59.8166,28
59.8352,22
59.8537,26
59.8723,28
59.8909,17
59.9095,27
59.9280,27
59.9466,26
59.9652,16
59.9838,20
60.0024,15
