; (content of file Y:\Sam\Apurva-07-20-2022\puck1\ML_20220721_27_SJD_0_LaB6-4min.raw)
_FILEVERSION = 3
_SAMPLE = ML_20220721_27_SJD_0_LaB6-4min
_+SAMPLE = 
_SITE = USA
_USER = Administrator
_GONIOMETER_CODE = 20
; Goniometer : D8 theta/2theta, stage : Unknown
_ATTACHMENTS_CODE = 0
_GONIOMETER_RADIUS = 200.5
_FIXED_DIVSLIT = 0.6
_FIXED_SAMPLESLIT = 0
_SOLLER_SLITS = 2
_FIXED_DETSLIT = 9.55
_MONOCHROMATOR = 0
; Incident beam monochromator : None
_SOLLER_SLITS_2 = N
_THIN_FILM = N
_BETA_FILTER = Y
_FIXED_ANTISLIT = 5.89
_ANALYZER_CODE = 0
; Received beam analyzer : None
_DATEMEASURED = "25-Jul-2022 15:53:34"
_WL_UNIT = A
_WL1 = 1.5406
_WL2 = 1.54439
_WL3 = 1.39222
_WLRATIO = 0.5
_ANODE = Cu
_V4_INF_CREATOR = XRDWizard
_V4_INF_CREATOR_VERSION = V2.9.0.22
_V4_INF_WIZARD_VERSION = V2.9.0.22
_V4_INF_WIZARD_ADDINS = V2.9.0.22
_V4_INF_WIZARD_DOCTYPE = XRD
_V4_INF_OSUSER = McQueenLab
_V4_INF_USER = Administrator
_V4_INF_SITE = USA
_V4_INF_SAMPLEID = ML_20220721_27_SJD_0_LaB6-4min

; Data for range 1
_DRIVE = COUPLED
_STEPTIME = 11.28
_STEPSIZE = 0.0185756
_STEPMODE = C
_START = 5
_THETA = 2.5
_2THETA = 5
_KHI = 0
_PHI = 0
_X = 0
_Y = 0
_Z = 0
_DETECTOR = 5
; Detector type : Unknown
_DETECTORSLIT = unkn
_AUX1 = 0
_AUX2 = 0
_AUX3 = 0
_TIMESTARTED = 15
_TEMP_RATE = -1
_TEMP_DELAY = -1
_KV = 40
_MA = 40
_RANGE_WL = 1.5406
_3DPLANE = 0
_V4_ADDITIONALDETECTOR = 257
_V4_PSD2THETA = 3.3651
_V4_PSDCHANNEL1 = 0
_V4_PSDAPERTURE = 12.68
_V4_PSDTYPE = 5
_V4_PSDFIXED = 0
_V4_COUNTERS_MASK = 4096
_V4_DRIVES_MASK = 0
_V4_ENCODERS_MASK = 0
_2THETACOUNTS = 1
; 2THETA  PSD
   5.0000        250
   5.0186        280
   5.0372        248
   5.0557        296
   5.0743        276
   5.0929        287
   5.1115        293
   5.1300        287
   5.1486        272
   5.1672        264
   5.1858        263
   5.2043        247
   5.2229        254
   5.2415        243
   5.2601        237
   5.2786        232
   5.2972        228
   5.3158        240
   5.3344        233
   5.3529        249
   5.3715        231
   5.3901        241
   5.4087        247
   5.4272        249
   5.4458        236
   5.4644        226
   5.4830        245
   5.5015        233
   5.5201        228
   5.5387        222
   5.5573        223
   5.5758        261
   5.5944        216
   5.6130        241
   5.6316        201
   5.6501        252
   5.6687        228
   5.6873        201
   5.7059        237
   5.7244        245
   5.7430        221
   5.7616        216
   5.7802        219
   5.7988        257
   5.8173        218
   5.8359        195
   5.8545        210
   5.8731        195
   5.8916        208
   5.9102        189
   5.9288        213
   5.9474        213
   5.9659        203
   5.9845        182
   6.0031        201
   6.0217        199
   6.0402        192
   6.0588        231
   6.0774        185
   6.0960        199
   6.1145        197
   6.1331        199
   6.1517        195
   6.1703        183
   6.1888        200
   6.2074        183
   6.2260        179
   6.2446        192
   6.2631        207
   6.2817        198
   6.3003        197
   6.3189        196
   6.3374        187
   6.3560        191
   6.3746        169
   6.3932        156
   6.4117        186
   6.4303        179
   6.4489        166
   6.4675        194
   6.4860        184
   6.5046        195
   6.5232        169
   6.5418        164
   6.5604        197
   6.5789        183
   6.5975        173
   6.6161        170
   6.6347        172
   6.6532        177
   6.6718        178
   6.6904        171
   6.7090        162
   6.7275        193
   6.7461        183
   6.7647        191
   6.7833        189
   6.8018        173
   6.8204        169
   6.8390        150
   6.8576        159
   6.8761        157
   6.8947        164
   6.9133        164
   6.9319        177
   6.9504        177
   6.9690        155
   6.9876        155
   7.0062        174
   7.0247        183
   7.0433        145
   7.0619        177
   7.0805        167
   7.0990        159
   7.1176        159
   7.1362        146
   7.1548        158
   7.1733        174
   7.1919        152
   7.2105        168
   7.2291        171
   7.2476        163
   7.2662        167
   7.2848        167
   7.3034        173
   7.3220        157
   7.3405        164
   7.3591        150
   7.3777        176
   7.3963        180
   7.4148        146
   7.4334        175
   7.4520        177
   7.4706        178
   7.4891        163
   7.5077        189
   7.5263        154
   7.5449        183
   7.5634        169
   7.5820        163
   7.6006        188
   7.6192        188
   7.6377        168
   7.6563        177
   7.6749        165
   7.6935        192
   7.7120        183
   7.7306        170
   7.7492        191
   7.7678        176
   7.7863        189
   7.8049        164
   7.8235        161
   7.8421        182
   7.8606        178
   7.8792        185
   7.8978        186
   7.9164        199
   7.9349        194
   7.9535        189
   7.9721        176
   7.9907        182
   8.0092        195
   8.0278        181
   8.0464        204
   8.0650        195
   8.0835        198
   8.1021        187
   8.1207        183
   8.1393        176
   8.1579        168
   8.1764        205
   8.1950        196
   8.2136        174
   8.2322        214
   8.2507        207
   8.2693        198
   8.2879        186
   8.3065        194
   8.3250        206
   8.3436        224
   8.3622        187
   8.3808        199
   8.3993        185
   8.4179        204
   8.4365        206
   8.4551        223
   8.4736        195
   8.4922        199
   8.5108        192
   8.5294        199
   8.5479        197
   8.5665        181
   8.5851        233
   8.6037        187
   8.6222        181
   8.6408        176
   8.6594        179
   8.6780        185
   8.6965        212
   8.7151        199
   8.7337        188
   8.7523        208
   8.7708        198
   8.7894        226
   8.8080        228
   8.8266        219
   8.8451        228
   8.8637        199
   8.8823        214
   8.9009        210
   8.9195        212
   8.9380        221
   8.9566        198
   8.9752        220
   8.9938        199
   9.0123        214
   9.0309        222
   9.0495        218
   9.0681        221
   9.0866        206
   9.1052        210
   9.1238        226
   9.1424        238
   9.1609        229
   9.1795        219
   9.1981        196
   9.2167        230
   9.2352        214
   9.2538        207
   9.2724        219
   9.2910        235
   9.3095        243
   9.3281        239
   9.3467        218
   9.3653        233
   9.3838        221
   9.4024        212
   9.4210        219
   9.4396        233
   9.4581        211
   9.4767        223
   9.4953        235
   9.5139        224
   9.5324        221
   9.5510        222
   9.5696        240
   9.5882        223
   9.6067        229
   9.6253        225
   9.6439        237
   9.6625        219
   9.6811        198
   9.6996        225
   9.7182        202
   9.7368        248
   9.7554        249
   9.7739        226
   9.7925        221
   9.8111        201
   9.8297        217
   9.8482        232
   9.8668        249
   9.8854        231
   9.9040        247
   9.9225        259
   9.9411        247
   9.9597        238
   9.9783        256
   9.9968        219
  10.0154        225
  10.0340        234
  10.0526        255
  10.0711        238
  10.0897        270
  10.1083        251
  10.1269        260
  10.1454        261
  10.1640        234
  10.1826        231
  10.2012        261
  10.2197        254
  10.2383        263
  10.2569        228
  10.2755        242
  10.2940        221
  10.3126        211
  10.3312        229
  10.3498        220
  10.3683        220
  10.3869        234
  10.4055        229
  10.4241        222
  10.4427        211
  10.4612        231
  10.4798        244
  10.4984        246
  10.5170        275
  10.5355        239
  10.5541        233
  10.5727        241
  10.5913        244
  10.6098        235
  10.6284        273
  10.6470        254
  10.6656        236
  10.6841        260
  10.7027        220
  10.7213        253
  10.7399        259
  10.7584        254
  10.7770        231
  10.7956        241
  10.8142        249
  10.8327        240
  10.8513        261
  10.8699        269
  10.8885        228
  10.9070        230
  10.9256        243
  10.9442        282
  10.9628        251
  10.9813        227
  10.9999        269
  11.0185        243
  11.0371        222
  11.0556        234
  11.0742        229
  11.0928        240
  11.1114        240
  11.1299        233
  11.1485        258
  11.1671        234
  11.1857        235
  11.2043        255
  11.2228        253
  11.2414        260
  11.2600        243
  11.2786        241
  11.2971        238
  11.3157        254
  11.3343        243
  11.3529        224
  11.3714        235
  11.3900        238
  11.4086        252
  11.4272        223
  11.4457        258
  11.4643        267
  11.4829        224
  11.5015        208
  11.5200        232
  11.5386        229
  11.5572        234
  11.5758        261
  11.5943        233
  11.6129        221
  11.6315        223
  11.6501        239
  11.6686        226
  11.6872        235
  11.7058        219
  11.7244        255
  11.7429        229
  11.7615        229
  11.7801        232
  11.7987        255
  11.8172        249
  11.8358        249
  11.8544        231
  11.8730        244
  11.8915        211
  11.9101        246
  11.9287        244
  11.9473        230
  11.9659        220
  11.9844        214
  12.0030        229
  12.0216        222
  12.0402        255
  12.0587        241
  12.0773        249
  12.0959        240
  12.1145        216
  12.1330        259
  12.1516        239
  12.1702        214
  12.1888        220
  12.2073        217
  12.2259        244
  12.2445        237
  12.2631        229
  12.2816        254
  12.3002        239
  12.3188        191
  12.3374        229
  12.3559        239
  12.3745        206
  12.3931        224
  12.4117        216
  12.4302        225
  12.4488        213
  12.4674        200
  12.4860        223
  12.5045        245
  12.5231        232
  12.5417        209
  12.5603        234
  12.5788        244
  12.5974        213
  12.6160        206
  12.6346        223
  12.6531        220
  12.6717        213
  12.6903        220
  12.7089        215
  12.7274        203
  12.7460        208
  12.7646        191
  12.7832        212
  12.8018        208
  12.8203        187
  12.8389        221
  12.8575        222
  12.8761        228
  12.8946        221
  12.9132        240
  12.9318        193
  12.9504        231
  12.9689        210
  12.9875        228
  13.0061        190
  13.0247        193
  13.0432        225
  13.0618        203
  13.0804        197
  13.0990        192
  13.1175        224
  13.1361        235
  13.1547        209
  13.1733        211
  13.1918        190
  13.2104        201
  13.2290        238
  13.2476        193
  13.2661        181
  13.2847        193
  13.3033        186
  13.3219        197
  13.3404        193
  13.3590        191
  13.3776        212
  13.3962        188
  13.4147        197
  13.4333        186
  13.4519        189
  13.4705        165
  13.4890        191
  13.5076        214
  13.5262        182
  13.5448        206
  13.5634        201
  13.5819        195
  13.6005        168
  13.6191        149
  13.6377        183
  13.6562        191
  13.6748        206
  13.6934        189
  13.7120        188
  13.7305        183
  13.7491        185
  13.7677        176
  13.7863        191
  13.8048        184
  13.8234        180
  13.8420        175
  13.8606        195
  13.8791        162
  13.8977        201
  13.9163        202
  13.9349        171
  13.9534        195
  13.9720        183
  13.9906        196
  14.0092        207
  14.0277        187
  14.0463        189
  14.0649        205
  14.0835        168
  14.1020        194
  14.1206        173
  14.1392        182
  14.1578        214
  14.1763        175
  14.1949        171
  14.2135        199
  14.2321        186
  14.2506        163
  14.2692        178
  14.2878        185
  14.3064        182
  14.3250        161
  14.3435        186
  14.3621        200
  14.3807        167
  14.3993        186
  14.4178        199
  14.4364        160
  14.4550        189
  14.4736        187
  14.4921        175
  14.5107        172
  14.5293        188
  14.5479        179
  14.5664        146
  14.5850        169
  14.6036        199
  14.6222        163
  14.6407        168
  14.6593        150
  14.6779        187
  14.6965        177
  14.7150        175
  14.7336        145
  14.7522        181
  14.7708        174
  14.7893        171
  14.8079        157
  14.8265        171
  14.8451        197
  14.8636        170
  14.8822        180
  14.9008        152
  14.9194        151
  14.9379        180
  14.9565        164
  14.9751        175
  14.9937        188
  15.0122        183
  15.0308        185
  15.0494        186
  15.0680        177
  15.0866        162
  15.1051        146
  15.1237        181
  15.1423        161
  15.1609        190
  15.1794        163
  15.1980        177
  15.2166        192
  15.2352        186
  15.2537        155
  15.2723        184
  15.2909        169
  15.3095        179
  15.3280        178
  15.3466        160
  15.3652        162
  15.3838        140
  15.4023        179
  15.4209        159
  15.4395        156
  15.4581        156
  15.4766        171
  15.4952        174
  15.5138        172
  15.5324        181
  15.5509        161
  15.5695        168
  15.5881        140
  15.6067        166
  15.6252        170
  15.6438        160
  15.6624        149
  15.6810        167
  15.6995        170
  15.7181        168
  15.7367        160
  15.7553        154
  15.7738        149
  15.7924        199
  15.8110        157
  15.8296        169
  15.8482        169
  15.8667        153
  15.8853        144
  15.9039        165
  15.9225        155
  15.9410        150
  15.9596        152
  15.9782        166
  15.9968        159
  16.0153        157
  16.0339        179
  16.0525        146
  16.0711        168
  16.0896        168
  16.1082        177
  16.1268        166
  16.1454        179
  16.1639        176
  16.1825        149
  16.2011        157
  16.2197        147
  16.2382        151
  16.2568        162
  16.2754        169
  16.2940        133
  16.3125        165
  16.3311        144
  16.3497        180
  16.3683        159
  16.3868        181
  16.4054        145
  16.4240        139
  16.4426        152
  16.4611        165
  16.4797        165
  16.4983        191
  16.5169        172
  16.5354        149
  16.5540        148
  16.5726        158
  16.5912        159
  16.6097        196
  16.6283        161
  16.6469        169
  16.6655        147
  16.6841        173
  16.7026        150
  16.7212        152
  16.7398        169
  16.7584        192
  16.7769        175
  16.7955        178
  16.8141        165
  16.8327        160
  16.8512        168
  16.8698        158
  16.8884        152
  16.9070        184
  16.9255        153
  16.9441        170
  16.9627        193
  16.9813        186
  16.9998        155
  17.0184        167
  17.0370        169
  17.0556        167
  17.0741        154
  17.0927        147
  17.1113        152
  17.1299        159
  17.1484        158
  17.1670        150
  17.1856        167
  17.2042        162
  17.2227        165
  17.2413        145
  17.2599        165
  17.2785        152
  17.2970        177
  17.3156        166
  17.3342        148
  17.3528        164
  17.3713        169
  17.3899        160
  17.4085        173
  17.4271        149
  17.4457        154
  17.4642        160
  17.4828        147
  17.5014        163
  17.5200        141
  17.5385        164
  17.5571        174
  17.5757        152
  17.5943        152
  17.6128        173
  17.6314        165
  17.6500        142
  17.6686        157
  17.6871        173
  17.7057        173
  17.7243        165
  17.7429        176
  17.7614        149
  17.7800        183
  17.7986        196
  17.8172        159
  17.8357        139
  17.8543        157
  17.8729        156
  17.8915        161
  17.9100        172
  17.9286        194
  17.9472        155
  17.9658        157
  17.9843        158
  18.0029        181
  18.0215        155
  18.0401        154
  18.0586        185
  18.0772        173
  18.0958        193
  18.1144        160
  18.1329        173
  18.1515        158
  18.1701        151
  18.1887        146
  18.2073        179
  18.2258        156
  18.2444        176
  18.2630        152
  18.2816        150
  18.3001        178
  18.3187        164
  18.3373        197
  18.3559        165
  18.3744        156
  18.3930        178
  18.4116        180
  18.4302        153
  18.4487        155
  18.4673        164
  18.4859        186
  18.5045        156
  18.5230        204
  18.5416        160
  18.5602        143
  18.5788        172
  18.5973        177
  18.6159        170
  18.6345        183
  18.6531        160
  18.6716        169
  18.6902        171
  18.7088        180
  18.7274        160
  18.7459        169
  18.7645        180
  18.7831        170
  18.8017        162
  18.8202        184
  18.8388        156
  18.8574        163
  18.8760        176
  18.8945        165
  18.9131        169
  18.9317        160
  18.9503        156
  18.9689        185
  18.9874        170
  19.0060        160
  19.0246        162
  19.0432        182
  19.0617        167
  19.0803        185
  19.0989        154
  19.1175        190
  19.1360        172
  19.1546        169
  19.1732        161
  19.1918        180
  19.2103        194
  19.2289        169
  19.2475        161
  19.2661        164
  19.2846        179
  19.3032        184
  19.3218        175
  19.3404        163
  19.3589        160
  19.3775        176
  19.3961        175
  19.4147        161
  19.4332        194
  19.4518        189
  19.4704        178
  19.4890        186
  19.5075        165
  19.5261        172
  19.5447        203
  19.5633        201
  19.5818        177
  19.6004        173
  19.6190        165
  19.6376        168
  19.6561        181
  19.6747        182
  19.6933        188
  19.7119        186
  19.7305        162
  19.7490        198
  19.7676        170
  19.7862        178
  19.8048        180
  19.8233        165
  19.8419        161
  19.8605        197
  19.8791        161
  19.8976        158
  19.9162        179
  19.9348        200
  19.9534        166
  19.9719        190
  19.9905        194
  20.0091        188
  20.0277        177
  20.0462        171
  20.0648        174
  20.0834        190
  20.1020        161
  20.1205        187
  20.1391        182
  20.1577        185
  20.1763        178
  20.1948        171
  20.2134        188
  20.2320        182
  20.2506        176
  20.2691        170
  20.2877        157
  20.3063        191
  20.3249        171
  20.3434        183
  20.3620        181
  20.3806        172
  20.3992        157
  20.4177        168
  20.4363        188
  20.4549        186
  20.4735        207
  20.4921        156
  20.5106        183
  20.5292        204
  20.5478        178
  20.5664        195
  20.5849        181
  20.6035        196
  20.6221        186
  20.6407        190
  20.6592        160
  20.6778        196
  20.6964        196
  20.7150        189
  20.7335        196
  20.7521        182
  20.7707        198
  20.7893        188
  20.8078        212
  20.8264        180
  20.8450        194
  20.8636        202
  20.8821        183
  20.9007        193
  20.9193        203
  20.9379        213
  20.9564        188
  20.9750        199
  20.9936        207
  21.0122        176
  21.0307        196
  21.0493        211
  21.0679        228
  21.0865        172
  21.1050        208
  21.1236        199
  21.1422        214
  21.1608        219
  21.1793        257
  21.1979        251
  21.2165        345
  21.2351        336
  21.2537        332
  21.2722        291
  21.2908        307
  21.3094        327
  21.3280        406
  21.3465        501
  21.3651        506
  21.3837        406
  21.4023        409
  21.4208        378
  21.4394        333
  21.4580        246
  21.4766        190
  21.4951        239
  21.5137        227
  21.5323        217
  21.5509        233
  21.5694        194
  21.5880        228
  21.6066        189
  21.6252        205
  21.6437        193
  21.6623        210
  21.6809        220
  21.6995        213
  21.7180        192
  21.7366        208
  21.7552        208
  21.7738        181
  21.7923        205
  21.8109        178
  21.8295        203
  21.8481        211
  21.8666        197
  21.8852        192
  21.9038        199
  21.9224        215
  21.9409        197
  21.9595        205
  21.9781        176
  21.9967        196
  22.0152        194
  22.0338        187
  22.0524        194
  22.0710        190
  22.0896        183
  22.1081        191
  22.1267        186
  22.1453        204
  22.1639        212
  22.1824        202
  22.2010        201
  22.2196        219
  22.2382        207
  22.2567        253
  22.2753        186
  22.2939        201
  22.3125        197
  22.3310        182
  22.3496        188
  22.3682        208
  22.3868        227
  22.4053        190
  22.4239        171
  22.4425        203
  22.4611        202
  22.4796        210
  22.4982        194
  22.5168        182
  22.5354        186
  22.5539        200
  22.5725        197
  22.5911        185
  22.6097        204
  22.6282        217
  22.6468        202
  22.6654        202
  22.6840        194
  22.7025        222
  22.7211        189
  22.7397        210
  22.7583        209
  22.7768        233
  22.7954        188
  22.8140        199
  22.8326        216
  22.8512        195
  22.8697        203
  22.8883        197
  22.9069        199
  22.9255        174
  22.9440        218
  22.9626        202
  22.9812        193
  22.9998        216
  23.0183        185
  23.0369        176
  23.0555        195
  23.0741        182
  23.0926        181
  23.1112        228
  23.1298        244
  23.1484        233
  23.1669        209
  23.1855        188
  23.2041        185
  23.2227        162
  23.2412        223
  23.2598        205
  23.2784        210
  23.2970        194
  23.3155        192
  23.3341        169
  23.3527        175
  23.3713        222
  23.3898        177
  23.4084        195
  23.4270        201
  23.4456        205
  23.4641        206
  23.4827        205
  23.5013        189
  23.5199        179
  23.5384        202
  23.5570        204
  23.5756        189
  23.5942        210
  23.6128        199
  23.6313        214
  23.6499        194
  23.6685        215
  23.6871        193
  23.7056        197
  23.7242        194
  23.7428        196
  23.7614        218
  23.7799        198
  23.7985        186
  23.8171        214
  23.8357        192
  23.8542        197
  23.8728        198
  23.8914        183
  23.9100        211
  23.9285        218
  23.9471        186
  23.9657        202
  23.9843        196
  24.0028        192
  24.0214        189
  24.0400        169
  24.0586        213
  24.0771        196
  24.0957        195
  24.1143        213
  24.1329        198
  24.1514        206
  24.1700        208
  24.1886        190
  24.2072        223
  24.2257        184
  24.2443        234
  24.2629        229
  24.2815        224
  24.3000        211
  24.3186        258
  24.3372        247
  24.3558        228
  24.3744        202
  24.3929        235
  24.4115        205
  24.4301        232
  24.4487        192
  24.4672        214
  24.4858        194
  24.5044        182
  24.5230        200
  24.5415        216
  24.5601        222
  24.5787        227
  24.5973        214
  24.6158        183
  24.6344        193
  24.6530        207
  24.6716        213
  24.6901        212
  24.7087        206
  24.7273        190
  24.7459        174
  24.7644        228
  24.7830        200
  24.8016        173
  24.8202        200
  24.8387        194
  24.8573        211
  24.8759        198
  24.8945        210
  24.9130        210
  24.9316        195
  24.9502        202
  24.9688        220
  24.9873        199
  25.0059        184
  25.0245        208
  25.0431        202
  25.0616        196
  25.0802        193
  25.0988        183
  25.1174        183
  25.1360        198
  25.1545        175
  25.1731        194
  25.1917        215
  25.2103        185
  25.2288        201
  25.2474        201
  25.2660        186
  25.2846        187
  25.3031        186
  25.3217        206
  25.3403        171
  25.3589        212
  25.3774        204
  25.3960        212
  25.4146        193
  25.4332        199
  25.4517        202
  25.4703        208
  25.4889        198
  25.5075        181
  25.5260        246
  25.5446        191
  25.5632        182
  25.5818        221
  25.6003        190
  25.6189        195
  25.6375        197
  25.6561        184
  25.6746        176
  25.6932        203
  25.7118        181
  25.7304        197
  25.7489        212
  25.7675        171
  25.7861        208
  25.8047        202
  25.8232        189
  25.8418        171
  25.8604        187
  25.8790        184
  25.8976        208
  25.9161        199
  25.9347        201
  25.9533        183
  25.9719        192
  25.9904        186
  26.0090        183
  26.0276        172
  26.0462        186
  26.0647        175
  26.0833        189
  26.1019        188
  26.1205        174
  26.1390        185
  26.1576        188
  26.1762        197
  26.1948        193
  26.2133        196
  26.2319        192
  26.2505        211
  26.2691        200
  26.2876        202
  26.3062        193
  26.3248        212
  26.3434        203
  26.3619        207
  26.3805        202
  26.3991        197
  26.4177        158
  26.4362        172
  26.4548        208
  26.4734        190
  26.4920        172
  26.5105        197
  26.5291        190
  26.5477        199
  26.5663        183
  26.5848        193
  26.6034        197
  26.6220        191
  26.6406        182
  26.6591        181
  26.6777        195
  26.6963        181
  26.7149        197
  26.7335        177
  26.7520        183
  26.7706        193
  26.7892        192
  26.8078        202
  26.8263        174
  26.8449        176
  26.8635        154
  26.8821        172
  26.9006        195
  26.9192        193
  26.9378        202
  26.9564        181
  26.9749        222
  26.9935        172
  27.0121        180
  27.0307        191
  27.0492        178
  27.0678        235
  27.0864        202
  27.1050        180
  27.1235        176
  27.1421        192
  27.1607        239
  27.1793        241
  27.1978        239
  27.2164        252
  27.2350        253
  27.2536        195
  27.2721        233
  27.2907        206
  27.3093        220
  27.3279        218
  27.3464        187
  27.3650        195
  27.3836        210
  27.4022        195
  27.4207        197
  27.4393        194
  27.4579        177
  27.4765        181
  27.4951        154
  27.5136        188
  27.5322        202
  27.5508        214
  27.5694        160
  27.5879        187
  27.6065        201
  27.6251        192
  27.6437        186
  27.6622        201
  27.6808        204
  27.6994        177
  27.7180        186
  27.7365        201
  27.7551        180
  27.7737        171
  27.7923        196
  27.8108        186
  27.8294        172
  27.8480        200
  27.8666        174
  27.8851        170
  27.9037        183
  27.9223        182
  27.9409        162
  27.9594        176
  27.9780        157
  27.9966        186
  28.0152        172
  28.0337        154
  28.0523        171
  28.0709        161
  28.0895        181
  28.1080        173
  28.1266        190
  28.1452        160
  28.1638        180
  28.1823        152
  28.2009        189
  28.2195        163
  28.2381        147
  28.2567        171
  28.2752        172
  28.2938        186
  28.3124        190
  28.3310        165
  28.3495        181
  28.3681        161
  28.3867        178
  28.4053        167
  28.4238        196
  28.4424        172
  28.4610        178
  28.4796        157
  28.4981        200
  28.5167        172
  28.5353        165
  28.5539        189
  28.5724        162
  28.5910        153
  28.6096        192
  28.6282        186
  28.6467        142
  28.6653        167
  28.6839        182
  28.7025        167
  28.7210        167
  28.7396        168
  28.7582        191
  28.7768        137
  28.7953        172
  28.8139        157
  28.8325        179
  28.8511        191
  28.8696        148
  28.8882        148
  28.9068        180
  28.9254        178
  28.9439        159
  28.9625        170
  28.9811        156
  28.9997        154
  29.0183        183
  29.0368        178
  29.0554        165
  29.0740        177
  29.0926        146
  29.1111        195
  29.1297        154
  29.1483        159
  29.1669        169
  29.1854        171
  29.2040        156
  29.2226        163
  29.2412        179
  29.2597        171
  29.2783        134
  29.2969        151
  29.3155        170
  29.3340        161
  29.3526        170
  29.3712        158
  29.3898        165
  29.4083        179
  29.4269        152
  29.4455        185
  29.4641        157
  29.4826        157
  29.5012        163
  29.5198        155
  29.5384        151
  29.5569        170
  29.5755        155
  29.5941        137
  29.6127        165
  29.6312        150
  29.6498        157
  29.6684        151
  29.6870        159
  29.7055        152
  29.7241        160
  29.7427        159
  29.7613        155
  29.7799        140
  29.7984        176
  29.8170        159
  29.8356        154
  29.8542        171
  29.8727        165
  29.8913        166
  29.9099        152
  29.9285        174
  29.9470        159
  29.9656        168
  29.9842        149
  30.0028        148
  30.0213        155
  30.0399        167
  30.0585        153
  30.0771        150
  30.0956        154
  30.1142        153
  30.1328        144
  30.1514        162
  30.1699        148
  30.1885        160
  30.2071        147
  30.2257        153
  30.2442        139
  30.2628        173
  30.2814        173
  30.3000        159
  30.3185        185
  30.3371        222
  30.3557        234
  30.3743        322
  30.3928        347
  30.4114        289
  30.4300        240
  30.4486        240
  30.4671        254
  30.4857        243
  30.5043        196
  30.5229        175
  30.5415        170
  30.5600        178
  30.5786        147
  30.5972        141
  30.6158        146
  30.6343        126
  30.6529        152
  30.6715        144
  30.6901        173
  30.7086        155
  30.7272        159
  30.7458        153
  30.7644        163
  30.7829        141
  30.8015        154
  30.8201        144
  30.8387        153
  30.8572        156
  30.8758        155
  30.8944        145
  30.9130        139
  30.9315        148
  30.9501        151
  30.9687        132
  30.9873        126
  31.0058        117
  31.0244        143
  31.0430        158
  31.0616        136
  31.0801        147
  31.0987        141
  31.1173        146
  31.1359        144
  31.1544        140
  31.1730        134
  31.1916        148
  31.2102        169
  31.2287        136
  31.2473        149
  31.2659        134
  31.2845        150
  31.3030        141
  31.3216        146
  31.3402        132
  31.3588        161
  31.3774        143
  31.3959        170
  31.4145        132
  31.4331        147
  31.4517        137
  31.4702        147
  31.4888        129
  31.5074        136
  31.5260        150
  31.5445        152
  31.5631        153
  31.5817        121
  31.6003        129
  31.6188        136
  31.6374        129
  31.6560        113
  31.6746        120
  31.6931        133
  31.7117        138
  31.7303        128
  31.7489        156
  31.7674        112
  31.7860        147
  31.8046        145
  31.8232        131
  31.8417        148
  31.8603        134
  31.8789        148
  31.8975        137
  31.9160        134
  31.9346        127
  31.9532        136
  31.9718        131
  31.9903        135
  32.0089        147
  32.0275        119
  32.0461        128
  32.0646        126
  32.0832        144
  32.1018        152
  32.1204        157
  32.1390        125
  32.1575        128
  32.1761        132
  32.1947        132
  32.2133        121
  32.2318        139
  32.2504        139
  32.2690        152
  32.2876        145
  32.3061        141
  32.3247        145
  32.3433        136
  32.3619        141
  32.3804        133
  32.3990        157
  32.4176        122
  32.4362        147
  32.4547        162
  32.4733        144
  32.4919        126
  32.5105        163
  32.5290        161
  32.5476        131
  32.5662        143
  32.5848        138
  32.6033        138
  32.6219        141
  32.6405        132
  32.6591        137
  32.6776        137
  32.6962        138
  32.7148        124
  32.7334        123
  32.7519        148
  32.7705        126
  32.7891        134
  32.8077        123
  32.8262        140
  32.8448        147
  32.8634        119
  32.8820        137
  32.9006        122
  32.9191        122
  32.9377        121
  32.9563        132
  32.9749        120
  32.9934        109
  33.0120        124
  33.0306        148
  33.0492        123
  33.0677        146
  33.0863        114
  33.1049        124
  33.1235        152
  33.1420        132
  33.1606        136
  33.1792        122
  33.1978        130
  33.2163        131
  33.2349        122
  33.2535        119
  33.2721         88
  33.2906        117
  33.3092        138
  33.3278        103
  33.3464        137
  33.3649        138
  33.3835        115
  33.4021        111
  33.4207        118
  33.4392        130
  33.4578        103
  33.4764        117
  33.4950        132
  33.5135        112
  33.5321        131
  33.5507        114
  33.5693        119
  33.5878        115
  33.6064        115
  33.6250        118
  33.6436        104
  33.6622         96
  33.6807        119
  33.6993        140
  33.7179        107
  33.7365         85
  33.7550        112
  33.7736        128
  33.7922        133
  33.8108        117
  33.8293        117
  33.8479        113
  33.8665        108
  33.8851        101
  33.9036        115
  33.9222        106
  33.9408        126
  33.9594        115
  33.9779        119
  33.9965        103
  34.0151        106
  34.0337        147
  34.0522        107
  34.0708        108
  34.0894        111
  34.1080        123
  34.1265        125
  34.1451        107
  34.1637        103
  34.1823        115
  34.2008        105
  34.2194        110
  34.2380        111
  34.2566        118
  34.2751        122
  34.2937        113
  34.3123        138
  34.3309        143
  34.3494        110
  34.3680        107
  34.3866        127
  34.4052        142
  34.4238        115
  34.4423        124
  34.4609        130
  34.4795        111
  34.4981        113
  34.5166        109
  34.5352        102
  34.5538        112
  34.5724        121
  34.5909        134
  34.6095        127
  34.6281        110
  34.6467        133
  34.6652        132
  34.6838        128
  34.7024        133
  34.7210        138
  34.7395        159
  34.7581        154
  34.7767        175
  34.7953        190
  34.8138        158
  34.8324        136
  34.8510        152
  34.8696        118
  34.8881        134
  34.9067        154
  34.9253        120
  34.9439        133
  34.9624        120
  34.9810        138
  34.9996        106
  35.0182        110
  35.0367        101
  35.0553         98
  35.0739        118
  35.0925        120
  35.1110         96
  35.1296         98
  35.1482        101
  35.1668         99
  35.1854        104
  35.2039         80
  35.2225         98
  35.2411         92
  35.2597         91
  35.2782         96
  35.2968         97
  35.3154         90
  35.3340         85
  35.3525        111
  35.3711        112
  35.3897        112
  35.4083        102
  35.4268         97
  35.4454         97
  35.4640        122
  35.4826         98
  35.5011         98
  35.5197        111
  35.5383        112
  35.5569        112
  35.5754        101
  35.5940        116
  35.6126         92
  35.6312         95
  35.6497        102
  35.6683         85
  35.6869        106
  35.7055        106
  35.7240        100
  35.7426         97
  35.7612        105
  35.7798        115
  35.7983        104
  35.8169        101
  35.8355        108
  35.8541        105
  35.8726        102
  35.8912        104
  35.9098        102
  35.9284        113
  35.9469        110
  35.9655        103
  35.9841        115
  36.0027         83
  36.0213        102
  36.0398         86
  36.0584         96
  36.0770        102
  36.0956        107
  36.1141        119
  36.1327         92
  36.1513         99
  36.1699        108
  36.1884        109
  36.2070         86
  36.2256         88
  36.2442        110
  36.2627         97
  36.2813        100
  36.2999         99
  36.3185         98
  36.3370         94
  36.3556         82
  36.3742         83
  36.3928         94
  36.4113        115
  36.4299        104
  36.4485        104
  36.4671        105
  36.4856         84
  36.5042         89
  36.5228         90
  36.5414        108
  36.5599         93
  36.5785         95
  36.5971         90
  36.6157         90
  36.6342        106
  36.6528         90
  36.6714         94
  36.6900         98
  36.7085         95
  36.7271        101
  36.7457         86
  36.7643         93
  36.7829        109
  36.8014         93
  36.8200        117
  36.8386         77
  36.8572         98
  36.8757         85
  36.8943         84
  36.9129         88
  36.9315         96
  36.9500         94
  36.9686        105
  36.9872         94
  37.0058        100
  37.0243         94
  37.0429         92
  37.0615         93
  37.0801         93
  37.0986         90
  37.1172        109
  37.1358         81
  37.1544         82
  37.1729         95
  37.1915         92
  37.2101         95
  37.2287         98
  37.2472        110
  37.2658         89
  37.2844         99
  37.3030         79
  37.3215         99
  37.3401         89
  37.3587         96
  37.3773         99
  37.3958        114
  37.4144        129
  37.4330        154
  37.4516        147
  37.4701        122
  37.4887        114
  37.5073        111
  37.5259        112
  37.5445        132
  37.5630        114
  37.5816         98
  37.6002         95
  37.6188         79
  37.6373         95
  37.6559        115
  37.6745         95
  37.6931        116
  37.7116         90
  37.7302         87
  37.7488        103
  37.7674         68
  37.7859         75
  37.8045         75
  37.8231         80
  37.8417        108
  37.8602         90
  37.8788         83
  37.8974         99
  37.9160        100
  37.9345         87
  37.9531         87
  37.9717         89
  37.9903         73
  38.0088         77
  38.0274         97
  38.0460         84
  38.0646         93
  38.0831         84
  38.1017         73
  38.1203         93
  38.1389         93
  38.1574        105
  38.1760         86
  38.1946         88
  38.2132         98
  38.2317         84
  38.2503        100
  38.2689         94
  38.2875         81
  38.3061         85
  38.3246         95
  38.3432         86
  38.3618         81
  38.3804         95
  38.3989         86
  38.4175         78
  38.4361         90
  38.4547         85
  38.4732         80
  38.4918         83
  38.5104         59
  38.5290         97
  38.5475         87
  38.5661         82
  38.5847         90
  38.6033         82
  38.6218         88
  38.6404         78
  38.6590         69
  38.6776         86
  38.6961         67
  38.7147         94
  38.7333         84
  38.7519         85
  38.7704         96
  38.7890         78
  38.8076         72
  38.8262         90
  38.8447         72
  38.8633         88
  38.8819         72
  38.9005         95
  38.9190         83
  38.9376         85
  38.9562         74
  38.9748         88
  38.9933         75
  39.0119         77
  39.0305         91
  39.0491         92
  39.0677         79
  39.0862        102
  39.1048         71
  39.1234         62
  39.1420        101
  39.1605         83
  39.1791         74
  39.1977         82
  39.2163         72
  39.2348         90
  39.2534         72
  39.2720         79
  39.2906         80
  39.3091         78
  39.3277         90
  39.3463         84
  39.3649        109
  39.3834         93
  39.4020         73
  39.4206         78
  39.4392         74
  39.4577         75
  39.4763         82
  39.4949         92
  39.5135         84
  39.5320         83
  39.5506         74
  39.5692         93
  39.5878         54
  39.6063         77
  39.6249         86
  39.6435         68
  39.6621         83
  39.6806         81
  39.6992         76
  39.7178         84
  39.7364         73
  39.7549         77
  39.7735         69
  39.7921         97
  39.8107         83
  39.8293         74
  39.8478         83
  39.8664         66
  39.8850         86
  39.9036         68
  39.9221         88
  39.9407         76
  39.9593         87
  39.9779         77
  39.9964         65
  40.0150         71
  40.0336         81
  40.0522        103
  40.0707         79
  40.0893         81
  40.1079         81
  40.1265         69
  40.1450         78
  40.1636         71
  40.1822         82
  40.2008         77
  40.2193         73
  40.2379         66
  40.2565         73
  40.2751         81
  40.2936         77
  40.3122         74
  40.3308         71
  40.3494         89
  40.3679         71
  40.3865         70
  40.4051         72
  40.4237         84
  40.4422         77
  40.4608         91
  40.4794         74
  40.4980         77
  40.5165         70
  40.5351         75
  40.5537         91
  40.5723         93
  40.5908         81
  40.6094         79
  40.6280         67
  40.6466         78
  40.6652         85
  40.6837         60
  40.7023         84
  40.7209         70
  40.7395         81
  40.7580         85
  40.7766         95
  40.7952         89
  40.8138         87
  40.8323         93
  40.8509         83
  40.8695         78
  40.8881         65
  40.9066         82
  40.9252         83
  40.9438         72
  40.9624         78
  40.9809         72
  40.9995         72
  41.0181         84
  41.0367         87
  41.0552         77
  41.0738         72
  41.0924         77
  41.1110         79
  41.1295         73
  41.1481         76
  41.1667         79
  41.1853         74
  41.2038         64
  41.2224         82
  41.2410         64
  41.2596         71
  41.2781         83
  41.2967         82
  41.3153         87
  41.3339         54
  41.3524         74
  41.3710         75
  41.3896         74
  41.4082         69
  41.4268         77
  41.4453         63
  41.4639         75
  41.4825         78
  41.5011         74
  41.5196         91
  41.5382         85
  41.5568         77
  41.5754         68
  41.5939         85
  41.6125         67
  41.6311         83
  41.6497         71
  41.6682         90
  41.6868         84
  41.7054         86
  41.7240         64
  41.7425         67
  41.7611         69
  41.7797         89
  41.7983         65
  41.8168         72
  41.8354         92
  41.8540         69
  41.8726         73
  41.8911         75
  41.9097         73
  41.9283         62
  41.9469         70
  41.9654         80
  41.9840         82
  42.0026         69
  42.0212         71
  42.0397         73
  42.0583         66
  42.0769         73
  42.0955         72
  42.1140         72
  42.1326         76
  42.1512         91
  42.1698         72
  42.1884         71
  42.2069         69
  42.2255         77
  42.2441         77
  42.2627         67
  42.2812         76
  42.2998         74
  42.3184         65
  42.3370         71
  42.3555         68
  42.3741         74
  42.3927         81
  42.4113         89
  42.4298         86
  42.4484         87
  42.4670         78
  42.4856         79
  42.5041         76
  42.5227         98
  42.5413         95
  42.5599         66
  42.5784         80
  42.5970         77
  42.6156         86
  42.6342         67
  42.6527         86
  42.6713         80
  42.6899         81
  42.7085         72
  42.7270         94
  42.7456         67
  42.7642         71
  42.7828         73
  42.8013         67
  42.8199         71
  42.8385         76
  42.8571         88
  42.8756         72
  42.8942         76
  42.9128         85
  42.9314         73
  42.9500         80
  42.9685         75
  42.9871         74
  43.0057         83
  43.0243        102
  43.0428         84
  43.0614         71
  43.0800         68
  43.0986         90
  43.1171         93
  43.1357         81
  43.1543         72
  43.1729         80
  43.1914         75
  43.2100        105
  43.2286         86
  43.2472         90
  43.2657         96
  43.2843         94
  43.3029         86
  43.3215         92
  43.3400         81
  43.3586         78
  43.3772         71
  43.3958         79
  43.4143         88
  43.4329         83
  43.4515         93
  43.4701         84
  43.4886        123
  43.5072        150
  43.5258        117
  43.5444         97
  43.5629         79
  43.5815         77
  43.6001         97
  43.6187        100
  43.6372        121
  43.6558         84
  43.6744         67
  43.6930         68
  43.7116         92
  43.7301         81
  43.7487         67
  43.7673         58
  43.7859         75
  43.8044         60
  43.8230         74
  43.8416         65
  43.8602         72
  43.8787         90
  43.8973         72
  43.9159         75
  43.9345         71
  43.9530         84
  43.9716         83
  43.9902         64
  44.0088         72
  44.0273         78
  44.0459         63
  44.0645         68
  44.0831         73
  44.1016         78
  44.1202         75
  44.1388         61
  44.1574         65
  44.1759         77
  44.1945         74
  44.2131         65
  44.2317         76
  44.2502         79
  44.2688         79
  44.2874         66
  44.3060         65
  44.3245         57
  44.3431         74
  44.3617         76
  44.3803         78
  44.3988         77
  44.4174         67
  44.4360         76
  44.4546         86
  44.4732         69
  44.4917         73
  44.5103         64
  44.5289         75
  44.5475         83
  44.5660         82
  44.5846         80
  44.6032         80
  44.6218         81
  44.6403         85
  44.6589         76
  44.6775         77
  44.6961         76
  44.7146         80
  44.7332         91
  44.7518         82
  44.7704         85
  44.7889         92
  44.8075         73
  44.8261         85
  44.8447         68
  44.8632         71
  44.8818         62
  44.9004         64
  44.9190         75
  44.9375         74
  44.9561         70
  44.9747         67
  44.9933         73
  45.0118         76
  45.0304         76
  45.0490         56
  45.0676         72
  45.0861         85
  45.1047         67
  45.1233         61
  45.1419         69
  45.1604         79
  45.1790         65
  45.1976         51
  45.2162         73
  45.2347         74
  45.2533         77
  45.2719         70
  45.2905         66
  45.3091         60
  45.3276         75
  45.3462         71
  45.3648         69
  45.3834         86
  45.4019         66
  45.4205         58
  45.4391         61
  45.4577         64
  45.4762         62
  45.4948         79
  45.5134         75
  45.5320         59
  45.5505         71
  45.5691         72
  45.5877         79
  45.6063         79
  45.6248         56
  45.6434         64
  45.6620         78
  45.6806         75
  45.6991         83
  45.7177         72
  45.7363         72
  45.7549         72
  45.7734         66
  45.7920         89
  45.8106         61
  45.8292         65
  45.8477         69
  45.8663         76
  45.8849         69
  45.9035         61
  45.9220         84
  45.9406         62
  45.9592         70
  45.9778         46
  45.9963         56
  46.0149         63
  46.0335         64
  46.0521         75
  46.0707         68
  46.0892         59
  46.1078         67
  46.1264         62
  46.1450         64
  46.1635         73
  46.1821         59
  46.2007         67
  46.2193         78
  46.2378         67
  46.2564         85
  46.2750         76
  46.2936         70
  46.3121         73
  46.3307         71
  46.3493         75
  46.3679         66
  46.3864         64
  46.4050         54
  46.4236         76
  46.4422         62
  46.4607         48
  46.4793         57
  46.4979         69
  46.5165         66
  46.5350         73
  46.5536         68
  46.5722         75
  46.5908         52
  46.6093         60
  46.6279         68
  46.6465         53
  46.6651         56
  46.6836         70
  46.7022         66
  46.7208         63
  46.7394         77
  46.7579         55
  46.7765         64
  46.7951         49
  46.8137         56
  46.8323         70
  46.8508         64
  46.8694         67
  46.8880         72
  46.9066         57
  46.9251         70
  46.9437         54
  46.9623         73
  46.9809         58
  46.9994         65
  47.0180         69
  47.0366         85
  47.0552         86
  47.0737         64
  47.0923         69
  47.1109         83
  47.1295         71
  47.1480         69
  47.1666         56
  47.1852         73
  47.2038         63
  47.2223         71
  47.2409         73
  47.2595         76
  47.2781         62
  47.2966         60
  47.3152         65
  47.3338         61
  47.3524         65
  47.3709         55
  47.3895         77
  47.4081         67
  47.4267         84
  47.4452         63
  47.4638         62
  47.4824         62
  47.5010         58
  47.5195         75
  47.5381         51
  47.5567         49
  47.5753         73
  47.5939         61
  47.6124         68
  47.6310         51
  47.6496         64
  47.6682         58
  47.6867         67
  47.7053         55
  47.7239         58
  47.7425         65
  47.7610         68
  47.7796         72
  47.7982         75
  47.8168         52
  47.8353         52
  47.8539         71
  47.8725         70
  47.8911         55
  47.9096         58
  47.9282         72
  47.9468         60
  47.9654         48
  47.9839         65
  48.0025         70
  48.0211         66
  48.0397         53
  48.0582         61
  48.0768         53
  48.0954         67
  48.1140         61
  48.1325         72
  48.1511         79
  48.1697         66
  48.1883         67
  48.2068         70
  48.2254         54
  48.2440         56
  48.2626         79
  48.2811         57
  48.2997         65
  48.3183         72
  48.3369         55
  48.3555         55
  48.3740         72
  48.3926         63
  48.4112         63
  48.4298         60
  48.4483         59
  48.4669         68
  48.4855         70
  48.5041         54
  48.5226         67
  48.5412         63
  48.5598         67
  48.5784         71
  48.5969         64
  48.6155         57
  48.6341         57
  48.6527         60
  48.6712         62
  48.6898         60
  48.7084         69
  48.7270         73
  48.7455         56
  48.7641         54
  48.7827         60
  48.8013         53
  48.8198         71
  48.8384         74
  48.8570         60
  48.8756         60
  48.8941         63
  48.9127         85
  48.9313        111
  48.9499        105
  48.9684        114
  48.9870         90
  49.0056         75
  49.0242         91
  49.0427         73
  49.0613         82
  49.0799         91
  49.0985         92
  49.1171         84
  49.1356         70
  49.1542         71
  49.1728         66
  49.1914         69
  49.2099         65
  49.2285         61
  49.2471         73
  49.2657         72
  49.2842         65
  49.3028         63
  49.3214         61
  49.3400         43
  49.3585         74
  49.3771         56
  49.3957         51
  49.4143         43
  49.4328         56
  49.4514         61
  49.4700         57
  49.4886         64
  49.5071         61
  49.5257         69
  49.5443         63
  49.5629         71
  49.5814         58
  49.6000         52
  49.6186         73
  49.6372         61
  49.6557         51
  49.6743         54
  49.6929         58
  49.7115         73
  49.7300         45
  49.7486         53
  49.7672         72
  49.7858         54
  49.8043         51
  49.8229         62
  49.8415         71
  49.8601         52
  49.8786         59
  49.8972         77
  49.9158         55
  49.9344         66
  49.9530         60
  49.9715         71
  49.9901         66
  50.0087         67
  50.0273         54
  50.0458         53
  50.0644         65
  50.0830         67
  50.1016         66
  50.1201         60
  50.1387         76
  50.1573         67
  50.1759         71
  50.1944         72
  50.2130         60
  50.2316         70
  50.2502         58
  50.2687         61
  50.2873         60
  50.3059         74
  50.3245         71
  50.3430         65
  50.3616         66
  50.3802         60
  50.3988         58
  50.4173         58
  50.4359         62
  50.4545         58
  50.4731         68
  50.4916         68
  50.5102         62
  50.5288         71
  50.5474         75
  50.5659         53
  50.5845         71
  50.6031         62
  50.6217         56
  50.6402         61
  50.6588         61
  50.6774         66
  50.6960         54
  50.7146         51
  50.7331         54
  50.7517         61
  50.7703         55
  50.7889         55
  50.8074         58
  50.8260         74
  50.8446         74
  50.8632         54
  50.8817         68
  50.9003         63
  50.9189         58
  50.9375         54
  50.9560         66
  50.9746         56
  50.9932         68
  51.0118         51
  51.0303         75
  51.0489         76
  51.0675         59
  51.0861         55
  51.1046         62
  51.1232         62
  51.1418         53
  51.1604         71
  51.1789         71
  51.1975         73
  51.2161         53
  51.2347         63
  51.2532         55
  51.2718         77
  51.2904         63
  51.3090         64
  51.3275         76
  51.3461         66
  51.3647         85
  51.3833         64
  51.4018         73
  51.4204         75
  51.4390         78
  51.4576         78
  51.4762         77
  51.4947         62
  51.5133         75
  51.5319         65
  51.5505         53
  51.5690         67
  51.5876         68
  51.6062         61
  51.6248         60
  51.6433         56
  51.6619         65
  51.6805         52
  51.6991         64
  51.7176         68
  51.7362         61
  51.7548         56
  51.7734         58
  51.7919         61
  51.8105         67
  51.8291         65
  51.8477         65
  51.8662         64
  51.8848         57
  51.9034         56
  51.9220         48
  51.9405         50
  51.9591         58
  51.9777         67
  51.9963         75
  52.0148         61
  52.0334         41
  52.0520         72
  52.0706         49
  52.0891         53
  52.1077         58
  52.1263         57
  52.1449         72
  52.1634         74
  52.1820         62
  52.2006         62
  52.2192         62
  52.2378         56
  52.2563         59
  52.2749         47
  52.2935         52
  52.3121         55
  52.3306         63
  52.3492         69
  52.3678         70
  52.3864         64
  52.4049         54
  52.4235         68
  52.4421         66
  52.4607         52
  52.4792         63
  52.4978         62
  52.5164         71
  52.5350         62
  52.5535         66
  52.5721         60
  52.5907         78
  52.6093         64
  52.6278         55
  52.6464         70
  52.6650         49
  52.6836         45
  52.7021         62
  52.7207         51
  52.7393         53
  52.7579         52
  52.7764         55
  52.7950         58
  52.8136         55
  52.8322         48
  52.8507         67
  52.8693         60
  52.8879         57
  52.9065         66
  52.9250         63
  52.9436         63
  52.9622         61
  52.9808         77
  52.9994         66
  53.0179         77
  53.0365         61
  53.0551         59
  53.0737         62
  53.0922         49
  53.1108         78
  53.1294         62
  53.1480         65
  53.1665         62
  53.1851         54
  53.2037         70
  53.2223         70
  53.2408         62
  53.2594         60
  53.2780         52
  53.2966         59
  53.3151         54
  53.3337         46
  53.3523         50
  53.3709         54
  53.3894         66
  53.4080         56
  53.4266         51
  53.4452         49
  53.4637         64
  53.4823         57
  53.5009         57
  53.5195         55
  53.5380         55
  53.5566         65
  53.5752         63
  53.5938         61
  53.6123         59
  53.6309         53
  53.6495         53
  53.6681         62
  53.6866         57
  53.7052         62
  53.7238         51
  53.7424         54
  53.7610         47
  53.7795         53
  53.7981         51
  53.8167         59
  53.8353         47
  53.8538         62
  53.8724         67
  53.8910         67
  53.9096         62
  53.9281         56
  53.9467         55
  53.9653         95
  53.9839         91
  54.0024         81
  54.0210         63
  54.0396         59
  54.0582         65
  54.0767         55
  54.0953         65
  54.1139         74
  54.1325         75
  54.1510         71
  54.1696         66
  54.1882         70
  54.2068         50
  54.2253         61
  54.2439         58
  54.2625         51
  54.2811         60
  54.2996         59
  54.3182         60
  54.3368         57
  54.3554         50
  54.3739         59
  54.3925         72
  54.4111         44
  54.4297         55
  54.4482         49
  54.4668         65
  54.4854         49
  54.5040         52
  54.5225         57
  54.5411         58
  54.5597         56
  54.5783         65
  54.5969         60
  54.6154         65
  54.6340         53
  54.6526         46
  54.6712         58
  54.6897         75
  54.7083         66
  54.7269         53
  54.7455         59
  54.7640         62
  54.7826         55
  54.8012         68
  54.8198         53
  54.8383         56
  54.8569         62
  54.8755         48
  54.8941         66
  54.9126         56
  54.9312         57
  54.9498         65
  54.9684         59
  54.9869         61
  55.0055         59
  55.0241         54
  55.0427         58
  55.0612         59
  55.0798         46
  55.0984         65
  55.1170         56
  55.1355         66
  55.1541         62
  55.1727         52
  55.1913         59
  55.2098         53
  55.2284         56
  55.2470         54
  55.2656         58
  55.2841         65
  55.3027         62
  55.3213         56
  55.3399         54
  55.3585         52
  55.3770         56
  55.3956         48
  55.4142         59
  55.4328         57
  55.4513         52
  55.4699         57
  55.4885         57
  55.5071         59
  55.5256         68
  55.5442         59
  55.5628         64
  55.5814         53
  55.5999         61
  55.6185         55
  55.6371         50
  55.6557         49
  55.6742         61
  55.6928         67
  55.7114         54
  55.7300         54
  55.7485         66
  55.7671         51
  55.7857         64
  55.8043         52
  55.8228         66
  55.8414         63
  55.8600         61
  55.8786         55
  55.8971         60
  55.9157         61
  55.9343         54
  55.9529         55
  55.9714         59
  55.9900         53
  56.0086         50
  56.0272         60
  56.0457         63
  56.0643         66
  56.0829         61
  56.1015         59
  56.1201         68
  56.1386         62
  56.1572         56
  56.1758         70
  56.1944         81
  56.2129         59
  56.2315         74
  56.2501         64
  56.2687         53
  56.2872         57
  56.3058         51
  56.3244         54
  56.3430         61
  56.3615         65
  56.3801         47
  56.3987         55
  56.4173         60
  56.4358         57
  56.4544         56
  56.4730         57
  56.4916         66
  56.5101         65
  56.5287         64
  56.5473         70
  56.5659         50
  56.5844         53
  56.6030         63
  56.6216         51
  56.6402         56
  56.6587         61
  56.6773         64
  56.6959         61
  56.7145         53
  56.7330         60
  56.7516         56
  56.7702         46
  56.7888         50
  56.8073         53
  56.8259         73
  56.8445         54
  56.8631         45
  56.8817         63
  56.9002         57
  56.9188         64
  56.9374         59
  56.9560         37
  56.9745         54
  56.9931         55
  57.0117         52
  57.0303         63
  57.0488         70
  57.0674         61
  57.0860         59
  57.1046         61
  57.1231         55
  57.1417         56
  57.1603         71
  57.1789         72
  57.1974         64
  57.2160         56
  57.2346         64
  57.2532         47
  57.2717         50
  57.2903         54
  57.3089         71
  57.3275         47
  57.3460         53
  57.3646         54
  57.3832         54
  57.4018         73
  57.4203         54
  57.4389         54
  57.4575         54
  57.4761         47
  57.4946         50
  57.5132         74
  57.5318         57
  57.5504         67
  57.5689         62
  57.5875         52
  57.6061         63
  57.6247         57
  57.6433         55
  57.6618         52
  57.6804         59
  57.6990         53
  57.7176         57
  57.7361         52
  57.7547         54
  57.7733         51
  57.7919         56
  57.8104         59
  57.8290         58
  57.8476         59
  57.8662         61
  57.8847         56
  57.9033         40
  57.9219         50
  57.9405         71
  57.9590         61
  57.9776         53
  57.9962         64
  58.0148         55
  58.0333         39
  58.0519         54
  58.0705         56
  58.0891         55
  58.1076         67
  58.1262         59
  58.1448         50
  58.1634         49
  58.1819         52
  58.2005         61
  58.2191         54
  58.2377         51
  58.2562         56
  58.2748         50
  58.2934         55
  58.3120         52
  58.3305         63
  58.3491         61
  58.3677         63
  58.3863         57
  58.4049         45
  58.4234         47
  58.4420         62
  58.4606         56
  58.4792         52
  58.4977         47
  58.5163         67
  58.5349         42
  58.5535         67
  58.5720         66
  58.5906         38
  58.6092         65
  58.6278         42
  58.6463         42
  58.6649         53
  58.6835         56
  58.7021         42
  58.7206         53
  58.7392         55
  58.7578         42
  58.7764         47
  58.7949         49
  58.8135         58
  58.8321         58
  58.8507         59
  58.8692         61
  58.8878         45
  58.9064         61
  58.9250         57
  58.9435         60
  58.9621         57
  58.9807         54
  58.9993         55
  59.0178         60
  59.0364         56
  59.0550         53
  59.0736         49
  59.0921         58
  59.1107         45
  59.1293         54
  59.1479         53
  59.1664         42
  59.1850         66
  59.2036         57
  59.2222         62
  59.2408         50
  59.2593         47
  59.2779         55
  59.2965         68
  59.3151         64
  59.3336         55
  59.3522         64
  59.3708         61
  59.3894         41
  59.4079         51
  59.4265         51
  59.4451         54
  59.4637         53
  59.4822         59
  59.5008         50
  59.5194         69
  59.5380         46
  59.5565         64
  59.5751         50
  59.5937         60
  59.6123         56
  59.6308         59
  59.6494         43
  59.6680         52
  59.6866         61
  59.7051         50
  59.7237         47
  59.7423         55
  59.7609         45
  59.7794         45
  59.7980         50
  59.8166         52
  59.8352         63
  59.8537         41
  59.8723         56
  59.8909         67
  59.9095         58
  59.9280         69
  59.9466         41
  59.9652         49
  59.9838         62
  60.0024         46
