; (content of file Y:\Sam\Apurva-07-20-2022\puck2\ML_20220720_6_SJD_0_LaB6-4min.raw)
_FILEVERSION = 3
_SAMPLE = ML_20220720_6_SJD_0_LaB6-4min
_+SAMPLE = 
_SITE = USA
_USER = Administrator
_GONIOMETER_CODE = 20
; Goniometer : D8 theta/2theta, stage : Unknown
_ATTACHMENTS_CODE = 0
_GONIOMETER_RADIUS = 200.5
_FIXED_DIVSLIT = 0.6
_FIXED_SAMPLESLIT = 0
_SOLLER_SLITS = 2
_FIXED_DETSLIT = 9.55
_MONOCHROMATOR = 0
; Incident beam monochromator : None
_SOLLER_SLITS_2 = N
_THIN_FILM = N
_BETA_FILTER = Y
_FIXED_ANTISLIT = 5.89
_ANALYZER_CODE = 0
; Received beam analyzer : None
_DATEMEASURED = "25-Jul-2022 17:47:01"
_WL_UNIT = A
_WL1 = 1.5406
_WL2 = 1.54439
_WL3 = 1.39222
_WLRATIO = 0.5
_ANODE = Cu
_V4_INF_CREATOR = XRDWizard
_V4_INF_CREATOR_VERSION = V2.9.0.22
_V4_INF_WIZARD_VERSION = V2.9.0.22
_V4_INF_WIZARD_ADDINS = V2.9.0.22
_V4_INF_WIZARD_DOCTYPE = XRD
_V4_INF_OSUSER = McQueenLab
_V4_INF_USER = Administrator
_V4_INF_SITE = USA
_V4_INF_SAMPLEID = ML_20220720_6_SJD_0_LaB6-4min

; Data for range 1
_DRIVE = COUPLED
_STEPTIME = 11.28
_STEPSIZE = 0.0185756
_STEPMODE = C
_START = 5
_THETA = 2.5
_2THETA = 5
_KHI = 0
_PHI = 0
_X = 0
_Y = 0
_Z = 0
_DETECTOR = 5
; Detector type : Unknown
_DETECTORSLIT = unkn
_AUX1 = 0
_AUX2 = 0
_AUX3 = 0
_TIMESTARTED = 14
_TEMP_RATE = -1
_TEMP_DELAY = -1
_KV = 40
_MA = 40
_RANGE_WL = 1.5406
_3DPLANE = 0
_V4_ADDITIONALDETECTOR = 257
_V4_PSD2THETA = 3.365
_V4_PSDCHANNEL1 = 0
_V4_PSDAPERTURE = 12.68
_V4_PSDTYPE = 5
_V4_PSDFIXED = 0
_V4_COUNTERS_MASK = 4096
_V4_DRIVES_MASK = 0
_V4_ENCODERS_MASK = 0
_2THETACOUNTS = 1
; 2THETA  PSD
   5.0000        263
   5.0186        291
   5.0372        261
   5.0557        274
   5.0743        240
   5.0929        235
   5.1115        252
   5.1300        242
   5.1486        249
   5.1672        253
   5.1858        280
   5.2043        266
   5.2229        225
   5.2415        244
   5.2601        257
   5.2786        256
   5.2972        241
   5.3158        229
   5.3344        230
   5.3529        213
   5.3715        225
   5.3901        260
   5.4087        225
   5.4272        240
   5.4458        203
   5.4644        243
   5.4830        248
   5.5015        220
   5.5201        214
   5.5387        234
   5.5573        202
   5.5758        222
   5.5944        220
   5.6130        217
   5.6316        205
   5.6501        209
   5.6687        205
   5.6873        247
   5.7059        213
   5.7244        200
   5.7430        200
   5.7616        215
   5.7802        195
   5.7988        220
   5.8173        194
   5.8359        177
   5.8545        220
   5.8731        205
   5.8916        202
   5.9102        243
   5.9288        232
   5.9474        206
   5.9659        216
   5.9845        187
   6.0031        197
   6.0217        205
   6.0402        187
   6.0588        183
   6.0774        235
   6.0960        199
   6.1145        199
   6.1331        205
   6.1517        183
   6.1703        194
   6.1888        200
   6.2074        192
   6.2260        202
   6.2446        201
   6.2631        206
   6.2817        199
   6.3003        219
   6.3189        180
   6.3374        166
   6.3560        178
   6.3746        212
   6.3932        192
   6.4117        173
   6.4303        174
   6.4489        195
   6.4675        176
   6.4860        172
   6.5046        163
   6.5232        183
   6.5418        206
   6.5604        171
   6.5789        184
   6.5975        176
   6.6161        171
   6.6347        179
   6.6532        181
   6.6718        162
   6.6904        153
   6.7090        176
   6.7275        168
   6.7461        173
   6.7647        156
   6.7833        176
   6.8018        168
   6.8204        178
   6.8390        174
   6.8576        159
   6.8761        183
   6.8947        171
   6.9133        146
   6.9319        150
   6.9504        194
   6.9690        148
   6.9876        151
   7.0062        171
   7.0247        159
   7.0433        164
   7.0619        184
   7.0805        162
   7.0990        171
   7.1176        152
   7.1362        150
   7.1548        201
   7.1733        166
   7.1919        174
   7.2105        132
   7.2291        182
   7.2476        144
   7.2662        151
   7.2848        180
   7.3034        197
   7.3220        156
   7.3405        148
   7.3591        175
   7.3777        188
   7.3963        179
   7.4148        164
   7.4334        166
   7.4520        185
   7.4706        172
   7.4891        204
   7.5077        180
   7.5263        151
   7.5449        187
   7.5634        184
   7.5820        188
   7.6006        174
   7.6192        199
   7.6377        173
   7.6563        207
   7.6749        185
   7.6935        172
   7.7120        175
   7.7306        166
   7.7492        201
   7.7678        155
   7.7863        176
   7.8049        181
   7.8235        160
   7.8421        181
   7.8606        195
   7.8792        186
   7.8978        183
   7.9164        178
   7.9349        191
   7.9535        204
   7.9721        200
   7.9907        189
   8.0092        177
   8.0278        180
   8.0464        167
   8.0650        201
   8.0835        197
   8.1021        173
   8.1207        179
   8.1393        192
   8.1579        181
   8.1764        193
   8.1950        211
   8.2136        185
   8.2322        184
   8.2507        216
   8.2693        193
   8.2879        199
   8.3065        208
   8.3250        201
   8.3436        223
   8.3622        182
   8.3808        173
   8.3993        203
   8.4179        187
   8.4365        221
   8.4551        180
   8.4736        195
   8.4922        211
   8.5108        180
   8.5294        202
   8.5479        213
   8.5665        181
   8.5851        196
   8.6037        212
   8.6222        217
   8.6408        203
   8.6594        194
   8.6780        176
   8.6965        205
   8.7151        190
   8.7337        195
   8.7523        226
   8.7708        197
   8.7894        222
   8.8080        212
   8.8266        190
   8.8451        228
   8.8637        222
   8.8823        190
   8.9009        220
   8.9195        213
   8.9380        223
   8.9566        212
   8.9752        219
   8.9938        221
   9.0123        225
   9.0309        211
   9.0495        199
   9.0681        210
   9.0866        224
   9.1052        193
   9.1238        226
   9.1424        208
   9.1609        223
   9.1795        246
   9.1981        228
   9.2167        239
   9.2352        223
   9.2538        214
   9.2724        196
   9.2910        222
   9.3095        218
   9.3281        202
   9.3467        224
   9.3653        211
   9.3838        219
   9.4024        206
   9.4210        214
   9.4396        208
   9.4581        214
   9.4767        244
   9.4953        229
   9.5139        215
   9.5324        193
   9.5510        248
   9.5696        221
   9.5882        215
   9.6067        238
   9.6253        222
   9.6439        259
   9.6625        226
   9.6811        192
   9.6996        236
   9.7182        215
   9.7368        229
   9.7554        236
   9.7739        253
   9.7925        242
   9.8111        253
   9.8297        222
   9.8482        217
   9.8668        264
   9.8854        244
   9.9040        239
   9.9225        257
   9.9411        249
   9.9597        251
   9.9783        227
   9.9968        227
  10.0154        249
  10.0340        236
  10.0526        220
  10.0711        210
  10.0897        222
  10.1083        220
  10.1269        242
  10.1454        250
  10.1640        229
  10.1826        225
  10.2012        225
  10.2197        242
  10.2383        220
  10.2569        255
  10.2755        243
  10.2940        234
  10.3126        258
  10.3312        212
  10.3498        243
  10.3683        224
  10.3869        252
  10.4055        243
  10.4241        245
  10.4427        230
  10.4612        258
  10.4798        255
  10.4984        223
  10.5170        274
  10.5355        226
  10.5541        245
  10.5727        251
  10.5913        237
  10.6098        281
  10.6284        237
  10.6470        262
  10.6656        245
  10.6841        256
  10.7027        272
  10.7213        223
  10.7399        235
  10.7584        258
  10.7770        218
  10.7956        228
  10.8142        240
  10.8327        253
  10.8513        261
  10.8699        247
  10.8885        239
  10.9070        245
  10.9256        241
  10.9442        218
  10.9628        268
  10.9813        253
  10.9999        230
  11.0185        273
  11.0371        294
  11.0556        235
  11.0742        230
  11.0928        234
  11.1114        243
  11.1299        244
  11.1485        237
  11.1671        243
  11.1857        260
  11.2043        260
  11.2228        255
  11.2414        238
  11.2600        271
  11.2786        230
  11.2971        251
  11.3157        213
  11.3343        262
  11.3529        278
  11.3714        230
  11.3900        231
  11.4086        254
  11.4272        237
  11.4457        197
  11.4643        217
  11.4829        233
  11.5015        223
  11.5200        236
  11.5386        266
  11.5572        237
  11.5758        224
  11.5943        228
  11.6129        234
  11.6315        250
  11.6501        231
  11.6686        235
  11.6872        215
  11.7058        224
  11.7244        216
  11.7429        223
  11.7615        256
  11.7801        217
  11.7987        203
  11.8172        233
  11.8358        211
  11.8544        238
  11.8730        240
  11.8915        228
  11.9101        218
  11.9287        260
  11.9473        262
  11.9659        217
  11.9844        216
  12.0030        209
  12.0216        210
  12.0402        223
  12.0587        221
  12.0773        233
  12.0959        244
  12.1145        232
  12.1330        252
  12.1516        240
  12.1702        253
  12.1888        223
  12.2073        232
  12.2259        216
  12.2445        234
  12.2631        240
  12.2816        242
  12.3002        243
  12.3188        245
  12.3374        206
  12.3559        209
  12.3745        216
  12.3931        229
  12.4117        237
  12.4302        223
  12.4488        231
  12.4674        226
  12.4860        230
  12.5045        228
  12.5231        249
  12.5417        236
  12.5603        215
  12.5788        198
  12.5974        239
  12.6160        206
  12.6346        216
  12.6531        209
  12.6717        239
  12.6903        201
  12.7089        218
  12.7274        236
  12.7460        221
  12.7646        222
  12.7832        219
  12.8018        192
  12.8203        222
  12.8389        219
  12.8575        195
  12.8761        222
  12.8946        216
  12.9132        241
  12.9318        194
  12.9504        209
  12.9689        216
  12.9875        207
  13.0061        203
  13.0247        233
  13.0432        205
  13.0618        200
  13.0804        193
  13.0990        223
  13.1175        211
  13.1361        208
  13.1547        213
  13.1733        167
  13.1918        225
  13.2104        211
  13.2290        183
  13.2476        188
  13.2661        214
  13.2847        217
  13.3033        219
  13.3219        206
  13.3404        201
  13.3590        178
  13.3776        199
  13.3962        201
  13.4147        225
  13.4333        203
  13.4519        179
  13.4705        204
  13.4890        188
  13.5076        208
  13.5262        184
  13.5448        190
  13.5634        185
  13.5819        191
  13.6005        195
  13.6191        233
  13.6377        196
  13.6562        199
  13.6748        212
  13.6934        205
  13.7120        183
  13.7305        188
  13.7491        200
  13.7677        193
  13.7863        213
  13.8048        183
  13.8234        197
  13.8420        183
  13.8606        200
  13.8791        197
  13.8977        189
  13.9163        184
  13.9349        197
  13.9534        181
  13.9720        190
  13.9906        205
  14.0092        183
  14.0277        201
  14.0463        189
  14.0649        179
  14.0835        177
  14.1020        211
  14.1206        183
  14.1392        143
  14.1578        168
  14.1763        204
  14.1949        192
  14.2135        177
  14.2321        178
  14.2506        196
  14.2692        161
  14.2878        187
  14.3064        163
  14.3250        187
  14.3435        171
  14.3621        162
  14.3807        178
  14.3993        185
  14.4178        200
  14.4364        155
  14.4550        205
  14.4736        208
  14.4921        202
  14.5107        188
  14.5293        165
  14.5479        175
  14.5664        177
  14.5850        195
  14.6036        195
  14.6222        168
  14.6407        174
  14.6593        166
  14.6779        168
  14.6965        184
  14.7150        151
  14.7336        189
  14.7522        170
  14.7708        167
  14.7893        143
  14.8079        136
  14.8265        148
  14.8451        188
  14.8636        191
  14.8822        178
  14.9008        166
  14.9194        162
  14.9379        164
  14.9565        181
  14.9751        180
  14.9937        170
  15.0122        160
  15.0308        171
  15.0494        164
  15.0680        160
  15.0866        177
  15.1051        179
  15.1237        163
  15.1423        148
  15.1609        178
  15.1794        148
  15.1980        156
  15.2166        181
  15.2352        163
  15.2537        165
  15.2723        176
  15.2909        158
  15.3095        173
  15.3280        180
  15.3466        160
  15.3652        206
  15.3838        204
  15.4023        170
  15.4209        164
  15.4395        149
  15.4581        148
  15.4766        180
  15.4952        166
  15.5138        179
  15.5324        182
  15.5509        174
  15.5695        169
  15.5881        173
  15.6067        169
  15.6252        186
  15.6438        151
  15.6624        151
  15.6810        151
  15.6995        154
  15.7181        160
  15.7367        151
  15.7553        171
  15.7738        165
  15.7924        173
  15.8110        181
  15.8296        170
  15.8482        173
  15.8667        173
  15.8853        156
  15.9039        175
  15.9225        161
  15.9410        171
  15.9596        170
  15.9782        154
  15.9968        152
  16.0153        161
  16.0339        159
  16.0525        168
  16.0711        156
  16.0896        155
  16.1082        163
  16.1268        174
  16.1454        171
  16.1639        180
  16.1825        165
  16.2011        157
  16.2197        160
  16.2382        179
  16.2568        180
  16.2754        155
  16.2940        184
  16.3125        158
  16.3311        178
  16.3497        181
  16.3683        150
  16.3868        182
  16.4054        149
  16.4240        154
  16.4426        160
  16.4611        140
  16.4797        149
  16.4983        173
  16.5169        181
  16.5354        151
  16.5540        165
  16.5726        156
  16.5912        159
  16.6097        160
  16.6283        162
  16.6469        166
  16.6655        170
  16.6841        168
  16.7026        189
  16.7212        160
  16.7398        172
  16.7584        173
  16.7769        188
  16.7955        180
  16.8141        171
  16.8327        168
  16.8512        151
  16.8698        172
  16.8884        150
  16.9070        149
  16.9255        153
  16.9441        191
  16.9627        166
  16.9813        166
  16.9998        156
  17.0184        180
  17.0370        164
  17.0556        158
  17.0741        158
  17.0927        177
  17.1113        169
  17.1299        146
  17.1484        155
  17.1670        165
  17.1856        152
  17.2042        170
  17.2227        166
  17.2413        191
  17.2599        187
  17.2785        169
  17.2970        159
  17.3156        153
  17.3342        155
  17.3528        135
  17.3713        180
  17.3899        165
  17.4085        140
  17.4271        158
  17.4457        173
  17.4642        162
  17.4828        162
  17.5014        168
  17.5200        184
  17.5385        172
  17.5571        147
  17.5757        151
  17.5943        146
  17.6128        184
  17.6314        172
  17.6500        168
  17.6686        177
  17.6871        135
  17.7057        164
  17.7243        154
  17.7429        154
  17.7614        162
  17.7800        181
  17.7986        194
  17.8172        186
  17.8357        153
  17.8543        174
  17.8729        140
  17.8915        179
  17.9100        159
  17.9286        147
  17.9472        163
  17.9658        164
  17.9843        168
  18.0029        192
  18.0215        181
  18.0401        178
  18.0586        151
  18.0772        171
  18.0958        195
  18.1144        171
  18.1329        166
  18.1515        144
  18.1701        155
  18.1887        165
  18.2073        148
  18.2258        167
  18.2444        189
  18.2630        153
  18.2816        159
  18.3001        170
  18.3187        155
  18.3373        164
  18.3559        149
  18.3744        162
  18.3930        160
  18.4116        172
  18.4302        171
  18.4487        144
  18.4673        164
  18.4859        174
  18.5045        178
  18.5230        186
  18.5416        173
  18.5602        155
  18.5788        154
  18.5973        179
  18.6159        167
  18.6345        170
  18.6531        183
  18.6716        189
  18.6902        176
  18.7088        187
  18.7274        155
  18.7459        184
  18.7645        173
  18.7831        168
  18.8017        178
  18.8202        179
  18.8388        159
  18.8574        171
  18.8760        172
  18.8945        186
  18.9131        175
  18.9317        170
  18.9503        164
  18.9689        171
  18.9874        152
  19.0060        163
  19.0246        175
  19.0432        164
  19.0617        166
  19.0803        166
  19.0989        190
  19.1175        167
  19.1360        175
  19.1546        174
  19.1732        192
  19.1918        184
  19.2103        145
  19.2289        181
  19.2475        200
  19.2661        147
  19.2846        196
  19.3032        174
  19.3218        180
  19.3404        181
  19.3589        190
  19.3775        175
  19.3961        179
  19.4147        180
  19.4332        184
  19.4518        187
  19.4704        175
  19.4890        169
  19.5075        190
  19.5261        173
  19.5447        187
  19.5633        182
  19.5818        172
  19.6004        174
  19.6190        194
  19.6376        189
  19.6561        181
  19.6747        157
  19.6933        162
  19.7119        181
  19.7305        159
  19.7490        155
  19.7676        178
  19.7862        193
  19.8048        173
  19.8233        172
  19.8419        158
  19.8605        182
  19.8791        172
  19.8976        191
  19.9162        157
  19.9348        183
  19.9534        194
  19.9719        165
  19.9905        191
  20.0091        185
  20.0277        168
  20.0462        176
  20.0648        191
  20.0834        182
  20.1020        184
  20.1205        202
  20.1391        185
  20.1577        165
  20.1763        193
  20.1948        168
  20.2134        176
  20.2320        174
  20.2506        178
  20.2691        175
  20.2877        180
  20.3063        220
  20.3249        189
  20.3434        173
  20.3620        197
  20.3806        186
  20.3992        172
  20.4177        166
  20.4363        186
  20.4549        186
  20.4735        176
  20.4921        181
  20.5106        176
  20.5292        162
  20.5478        183
  20.5664        178
  20.5849        182
  20.6035        204
  20.6221        183
  20.6407        192
  20.6592        179
  20.6778        179
  20.6964        174
  20.7150        199
  20.7335        189
  20.7521        198
  20.7707        187
  20.7893        196
  20.8078        207
  20.8264        175
  20.8450        161
  20.8636        200
  20.8821        212
  20.9007        199
  20.9193        167
  20.9379        186
  20.9564        183
  20.9750        170
  20.9936        203
  21.0122        232
  21.0307        205
  21.0493        199
  21.0679        192
  21.0865        212
  21.1050        228
  21.1236        225
  21.1422        233
  21.1608        221
  21.1793        230
  21.1979        305
  21.2165        324
  21.2351        314
  21.2537        319
  21.2722        319
  21.2908        319
  21.3094        328
  21.3280        411
  21.3465        534
  21.3651        535
  21.3837        423
  21.4023        374
  21.4208        362
  21.4394        274
  21.4580        237
  21.4766        234
  21.4951        186
  21.5137        188
  21.5323        231
  21.5509        202
  21.5694        200
  21.5880        164
  21.6066        199
  21.6252        192
  21.6437        205
  21.6623        188
  21.6809        211
  21.6995        205
  21.7180        168
  21.7366        170
  21.7552        220
  21.7738        191
  21.7923        197
  21.8109        226
  21.8295        215
  21.8481        231
  21.8666        213
  21.8852        220
  21.9038        217
  21.9224        198
  21.9409        189
  21.9595        196
  21.9781        189
  21.9967        190
  22.0152        180
  22.0338        178
  22.0524        217
  22.0710        190
  22.0896        179
  22.1081        191
  22.1267        203
  22.1453        176
  22.1639        187
  22.1824        162
  22.2010        190
  22.2196        182
  22.2382        207
  22.2567        212
  22.2753        195
  22.2939        181
  22.3125        202
  22.3310        177
  22.3496        189
  22.3682        209
  22.3868        200
  22.4053        195
  22.4239        206
  22.4425        213
  22.4611        199
  22.4796        206
  22.4982        197
  22.5168        188
  22.5354        211
  22.5539        202
  22.5725        211
  22.5911        223
  22.6097        192
  22.6282        192
  22.6468        197
  22.6654        187
  22.6840        220
  22.7025        223
  22.7211        203
  22.7397        197
  22.7583        186
  22.7768        211
  22.7954        180
  22.8140        205
  22.8326        208
  22.8512        183
  22.8697        184
  22.8883        177
  22.9069        217
  22.9255        211
  22.9440        208
  22.9626        200
  22.9812        207
  22.9998        207
  23.0183        235
  23.0369        188
  23.0555        230
  23.0741        218
  23.0926        210
  23.1112        210
  23.1298        191
  23.1484        205
  23.1669        190
  23.1855        183
  23.2041        194
  23.2227        187
  23.2412        213
  23.2598        181
  23.2784        202
  23.2970        184
  23.3155        193
  23.3341        189
  23.3527        187
  23.3713        201
  23.3898        191
  23.4084        209
  23.4270        187
  23.4456        193
  23.4641        185
  23.4827        196
  23.5013        214
  23.5199        216
  23.5384        201
  23.5570        181
  23.5756        195
  23.5942        219
  23.6128        220
  23.6313        205
  23.6499        186
  23.6685        211
  23.6871        195
  23.7056        190
  23.7242        217
  23.7428        207
  23.7614        216
  23.7799        224
  23.7985        223
  23.8171        216
  23.8357        214
  23.8542        180
  23.8728        239
  23.8914        200
  23.9100        203
  23.9285        203
  23.9471        209
  23.9657        194
  23.9843        202
  24.0028        205
  24.0214        217
  24.0400        189
  24.0586        200
  24.0771        186
  24.0957        212
  24.1143        199
  24.1329        187
  24.1514        211
  24.1700        225
  24.1886        228
  24.2072        232
  24.2257        208
  24.2443        203
  24.2629        227
  24.2815        225
  24.3000        236
  24.3186        225
  24.3372        216
  24.3558        232
  24.3744        240
  24.3929        224
  24.4115        192
  24.4301        195
  24.4487        199
  24.4672        208
  24.4858        202
  24.5044        207
  24.5230        209
  24.5415        234
  24.5601        196
  24.5787        190
  24.5973        188
  24.6158        211
  24.6344        188
  24.6530        195
  24.6716        180
  24.6901        181
  24.7087        200
  24.7273        203
  24.7459        219
  24.7644        161
  24.7830        201
  24.8016        203
  24.8202        202
  24.8387        206
  24.8573        203
  24.8759        163
  24.8945        201
  24.9130        178
  24.9316        177
  24.9502        188
  24.9688        176
  24.9873        187
  25.0059        182
  25.0245        205
  25.0431        217
  25.0616        204
  25.0802        199
  25.0988        187
  25.1174        208
  25.1360        214
  25.1545        195
  25.1731        223
  25.1917        204
  25.2103        171
  25.2288        188
  25.2474        172
  25.2660        191
  25.2846        205
  25.3031        217
  25.3217        195
  25.3403        221
  25.3589        205
  25.3774        182
  25.3960        178
  25.4146        211
  25.4332        208
  25.4517        193
  25.4703        203
  25.4889        213
  25.5075        211
  25.5260        209
  25.5446        213
  25.5632        201
  25.5818        223
  25.6003        185
  25.6189        189
  25.6375        184
  25.6561        211
  25.6746        184
  25.6932        193
  25.7118        194
  25.7304        189
  25.7489        192
  25.7675        189
  25.7861        208
  25.8047        247
  25.8232        201
  25.8418        188
  25.8604        197
  25.8790        198
  25.8976        186
  25.9161        196
  25.9347        188
  25.9533        207
  25.9719        189
  25.9904        201
  26.0090        167
  26.0276        175
  26.0462        170
  26.0647        201
  26.0833        186
  26.1019        170
  26.1205        215
  26.1390        202
  26.1576        203
  26.1762        194
  26.1948        161
  26.2133        190
  26.2319        208
  26.2505        195
  26.2691        207
  26.2876        183
  26.3062        199
  26.3248        216
  26.3434        182
  26.3619        211
  26.3805        202
  26.3991        203
  26.4177        183
  26.4362        211
  26.4548        227
  26.4734        168
  26.4920        196
  26.5105        183
  26.5291        192
  26.5477        198
  26.5663        194
  26.5848        221
  26.6034        179
  26.6220        167
  26.6406        180
  26.6591        201
  26.6777        210
  26.6963        179
  26.7149        180
  26.7335        188
  26.7520        199
  26.7706        183
  26.7892        191
  26.8078        166
  26.8263        207
  26.8449        163
  26.8635        199
  26.8821        189
  26.9006        198
  26.9192        180
  26.9378        183
  26.9564        188
  26.9749        188
  26.9935        191
  27.0121        207
  27.0307        191
  27.0492        186
  27.0678        171
  27.0864        186
  27.1050        190
  27.1235        208
  27.1421        214
  27.1607        210
  27.1793        252
  27.1978        236
  27.2164        248
  27.2350        282
  27.2536        223
  27.2721        233
  27.2907        214
  27.3093        210
  27.3279        195
  27.3464        223
  27.3650        204
  27.3836        199
  27.4022        179
  27.4207        184
  27.4393        177
  27.4579        158
  27.4765        199
  27.4951        167
  27.5136        190
  27.5322        186
  27.5508        182
  27.5694        191
  27.5879        177
  27.6065        191
  27.6251        188
  27.6437        177
  27.6622        179
  27.6808        202
  27.6994        191
  27.7180        189
  27.7365        174
  27.7551        175
  27.7737        182
  27.7923        189
  27.8108        169
  27.8294        165
  27.8480        176
  27.8666        171
  27.8851        182
  27.9037        213
  27.9223        163
  27.9409        172
  27.9594        182
  27.9780        192
  27.9966        211
  28.0152        193
  28.0337        166
  28.0523        193
  28.0709        165
  28.0895        171
  28.1080        163
  28.1266        184
  28.1452        161
  28.1638        181
  28.1823        164
  28.2009        158
  28.2195        201
  28.2381        186
  28.2567        169
  28.2752        173
  28.2938        155
  28.3124        172
  28.3310        162
  28.3495        174
  28.3681        164
  28.3867        162
  28.4053        159
  28.4238        184
  28.4424        174
  28.4610        210
  28.4796        171
  28.4981        174
  28.5167        177
  28.5353        179
  28.5539        200
  28.5724        147
  28.5910        169
  28.6096        153
  28.6282        184
  28.6467        183
  28.6653        185
  28.6839        159
  28.7025        166
  28.7210        202
  28.7396        166
  28.7582        186
  28.7768        142
  28.7953        153
  28.8139        176
  28.8325        174
  28.8511        178
  28.8696        178
  28.8882        150
  28.9068        143
  28.9254        182
  28.9439        167
  28.9625        175
  28.9811        161
  28.9997        174
  29.0183        151
  29.0368        164
  29.0554        151
  29.0740        195
  29.0926        159
  29.1111        196
  29.1297        184
  29.1483        151
  29.1669        140
  29.1854        146
  29.2040        151
  29.2226        167
  29.2412        159
  29.2597        133
  29.2783        160
  29.2969        168
  29.3155        157
  29.3340        158
  29.3526        202
  29.3712        171
  29.3898        166
  29.4083        164
  29.4269        179
  29.4455        128
  29.4641        152
  29.4826        143
  29.5012        145
  29.5198        186
  29.5384        155
  29.5569        185
  29.5755        167
  29.5941        151
  29.6127        168
  29.6312        165
  29.6498        137
  29.6684        161
  29.6870        165
  29.7055        159
  29.7241        154
  29.7427        162
  29.7613        177
  29.7799        158
  29.7984        166
  29.8170        150
  29.8356        151
  29.8542        132
  29.8727        157
  29.8913        156
  29.9099        151
  29.9285        132
  29.9470        144
  29.9656        144
  29.9842        156
  30.0028        147
  30.0213        172
  30.0399        173
  30.0585        180
  30.0771        157
  30.0956        173
  30.1142        162
  30.1328        195
  30.1514        164
  30.1699        171
  30.1885        138
  30.2071        148
  30.2257        140
  30.2442        178
  30.2628        161
  30.2814        170
  30.3000        180
  30.3185        166
  30.3371        248
  30.3557        274
  30.3743        339
  30.3928        393
  30.4114        264
  30.4300        280
  30.4486        250
  30.4671        268
  30.4857        195
  30.5043        173
  30.5229        184
  30.5415        180
  30.5600        146
  30.5786        159
  30.5972        207
  30.6158        147
  30.6343        154
  30.6529        167
  30.6715        148
  30.6901        168
  30.7086        152
  30.7272        165
  30.7458        168
  30.7644        134
  30.7829        148
  30.8015        153
  30.8201        138
  30.8387        141
  30.8572        150
  30.8758        146
  30.8944        141
  30.9130        143
  30.9315        161
  30.9501        133
  30.9687        164
  30.9873        139
  31.0058        164
  31.0244        164
  31.0430        146
  31.0616        140
  31.0801        162
  31.0987        137
  31.1173        148
  31.1359        165
  31.1544        133
  31.1730        135
  31.1916        162
  31.2102        148
  31.2287        139
  31.2473        148
  31.2659        141
  31.2845        155
  31.3030        140
  31.3216        148
  31.3402        142
  31.3588        145
  31.3774        136
  31.3959        132
  31.4145        134
  31.4331        123
  31.4517        120
  31.4702        164
  31.4888        146
  31.5074        151
  31.5260        142
  31.5445        150
  31.5631        126
  31.5817        140
  31.6003        145
  31.6188        148
  31.6374        154
  31.6560        130
  31.6746        155
  31.6931        141
  31.7117        139
  31.7303        153
  31.7489        123
  31.7674        143
  31.7860        158
  31.8046        151
  31.8232        151
  31.8417        145
  31.8603        147
  31.8789        123
  31.8975        138
  31.9160        149
  31.9346        138
  31.9532        138
  31.9718        137
  31.9903        118
  32.0089        141
  32.0275        133
  32.0461        137
  32.0646        107
  32.0832        123
  32.1018        137
  32.1204        137
  32.1390        140
  32.1575        132
  32.1761        120
  32.1947        149
  32.2133        149
  32.2318        115
  32.2504        138
  32.2690        148
  32.2876        138
  32.3061        149
  32.3247        133
  32.3433        149
  32.3619        118
  32.3804        134
  32.3990        145
  32.4176        142
  32.4362        141
  32.4547        152
  32.4733        147
  32.4919        140
  32.5105        163
  32.5290        146
  32.5476        151
  32.5662        163
  32.5848        142
  32.6033        146
  32.6219        164
  32.6405        120
  32.6591        133
  32.6776        143
  32.6962        118
  32.7148        137
  32.7334        130
  32.7519        133
  32.7705        113
  32.7891        141
  32.8077        129
  32.8262        140
  32.8448        145
  32.8634        130
  32.8820        111
  32.9006        138
  32.9191         98
  32.9377        140
  32.9563        107
  32.9749        105
  32.9934        110
  33.0120        113
  33.0306        124
  33.0492        118
  33.0677        138
  33.0863        110
  33.1049        118
  33.1235        108
  33.1420        136
  33.1606        110
  33.1792        112
  33.1978        124
  33.2163        122
  33.2349        130
  33.2535        136
  33.2721        126
  33.2906        129
  33.3092        126
  33.3278        139
  33.3464        129
  33.3649        131
  33.3835        123
  33.4021        115
  33.4207        116
  33.4392        122
  33.4578        115
  33.4764        120
  33.4950         96
  33.5135        110
  33.5321        116
  33.5507        111
  33.5693        129
  33.5878        116
  33.6064        126
  33.6250        115
  33.6436        102
  33.6622        128
  33.6807        112
  33.6993        128
  33.7179        128
  33.7365        103
  33.7550        140
  33.7736        126
  33.7922        128
  33.8108        128
  33.8293        117
  33.8479        115
  33.8665        131
  33.8851        107
  33.9036        104
  33.9222        114
  33.9408        113
  33.9594        131
  33.9779        138
  33.9965        118
  34.0151        127
  34.0337        108
  34.0522        111
  34.0708        115
  34.0894         92
  34.1080        124
  34.1265        125
  34.1451        118
  34.1637        122
  34.1823         98
  34.2008        123
  34.2194        132
  34.2380        115
  34.2566        114
  34.2751        112
  34.2937        123
  34.3123        121
  34.3309        119
  34.3494        131
  34.3680        125
  34.3866        101
  34.4052        113
  34.4238        151
  34.4423        115
  34.4609        123
  34.4795         83
  34.4981         96
  34.5166         98
  34.5352        109
  34.5538        114
  34.5724        136
  34.5909        140
  34.6095        138
  34.6281        124
  34.6467        141
  34.6652        122
  34.6838        132
  34.7024        127
  34.7210        142
  34.7395        145
  34.7581        176
  34.7767        189
  34.7953        147
  34.8138        164
  34.8324        132
  34.8510        129
  34.8696        145
  34.8881        143
  34.9067        122
  34.9253        118
  34.9439        130
  34.9624        118
  34.9810        112
  34.9996        113
  35.0182        124
  35.0367        106
  35.0553        111
  35.0739        108
  35.0925        103
  35.1110        116
  35.1296        113
  35.1482         92
  35.1668         91
  35.1854        100
  35.2039        108
  35.2225        111
  35.2411        110
  35.2597         93
  35.2782         96
  35.2968        120
  35.3154         99
  35.3340         90
  35.3525        103
  35.3711         92
  35.3897        108
  35.4083        111
  35.4268         98
  35.4454         96
  35.4640        114
  35.4826        127
  35.5011        107
  35.5197         91
  35.5383        117
  35.5569        104
  35.5754         96
  35.5940         93
  35.6126        111
  35.6312        111
  35.6497        104
  35.6683        113
  35.6869        107
  35.7055        104
  35.7240         95
  35.7426         89
  35.7612         97
  35.7798        109
  35.7983         99
  35.8169        100
  35.8355        112
  35.8541         86
  35.8726        100
  35.8912         96
  35.9098         93
  35.9284        122
  35.9469         96
  35.9655        123
  35.9841        106
  36.0027        107
  36.0213         95
  36.0398        109
  36.0584        101
  36.0770         99
  36.0956         87
  36.1141        108
  36.1327         92
  36.1513         97
  36.1699         88
  36.1884        108
  36.2070        104
  36.2256        107
  36.2442         97
  36.2627        106
  36.2813        107
  36.2999         99
  36.3185        109
  36.3370         96
  36.3556        108
  36.3742         79
  36.3928         97
  36.4113         87
  36.4299         92
  36.4485         80
  36.4671        102
  36.4856         99
  36.5042        108
  36.5228        119
  36.5414         95
  36.5599         81
  36.5785         89
  36.5971         82
  36.6157        109
  36.6342         85
  36.6528         86
  36.6714         94
  36.6900        105
  36.7085         99
  36.7271         93
  36.7457        112
  36.7643         95
  36.7829         81
  36.8014         92
  36.8200         86
  36.8386        104
  36.8572         93
  36.8757         86
  36.8943        111
  36.9129        111
  36.9315         87
  36.9500         81
  36.9686         85
  36.9872         81
  37.0058        106
  37.0243         83
  37.0429        100
  37.0615        115
  37.0801        116
  37.0986         99
  37.1172         86
  37.1358         94
  37.1544         99
  37.1729         89
  37.1915         88
  37.2101        100
  37.2287         76
  37.2472         98
  37.2658        101
  37.2844         98
  37.3030         85
  37.3215         86
  37.3401        104
  37.3587         94
  37.3773        112
  37.3958        114
  37.4144        127
  37.4330        171
  37.4516        160
  37.4701        139
  37.4887        117
  37.5073        123
  37.5259        119
  37.5445        122
  37.5630        113
  37.5816        110
  37.6002         93
  37.6188         85
  37.6373        119
  37.6559         95
  37.6745        100
  37.6931         93
  37.7116         90
  37.7302         84
  37.7488         81
  37.7674         78
  37.7859         77
  37.8045         92
  37.8231        102
  37.8417         91
  37.8602         75
  37.8788        102
  37.8974         87
  37.9160         92
  37.9345         84
  37.9531         71
  37.9717         77
  37.9903         98
  38.0088         81
  38.0274        102
  38.0460         96
  38.0646         82
  38.0831         88
  38.1017         95
  38.1203         82
  38.1389         76
  38.1574         89
  38.1760         66
  38.1946         84
  38.2132         89
  38.2317         83
  38.2503         78
  38.2689         95
  38.2875         91
  38.3061         90
  38.3246        108
  38.3432         84
  38.3618         84
  38.3804         82
  38.3989         77
  38.4175         87
  38.4361         85
  38.4547         94
  38.4732         97
  38.4918         73
  38.5104         88
  38.5290         75
  38.5475         70
  38.5661         91
  38.5847         92
  38.6033         71
  38.6218         84
  38.6404         73
  38.6590         76
  38.6776         71
  38.6961         82
  38.7147         95
  38.7333        103
  38.7519         85
  38.7704         89
  38.7890         88
  38.8076         85
  38.8262         80
  38.8447         89
  38.8633        100
  38.8819         79
  38.9005         89
  38.9190         77
  38.9376         96
  38.9562         86
  38.9748        100
  38.9933         78
  39.0119         98
  39.0305         97
  39.0491         89
  39.0677         85
  39.0862        108
  39.1048         92
  39.1234         98
  39.1420        102
  39.1605         82
  39.1791         78
  39.1977         83
  39.2163         86
  39.2348         91
  39.2534         97
  39.2720         95
  39.2906         95
  39.3091         80
  39.3277         68
  39.3463         70
  39.3649         78
  39.3834         87
  39.4020         81
  39.4206         84
  39.4392         81
  39.4577         75
  39.4763         79
  39.4949         79
  39.5135         75
  39.5320         77
  39.5506         90
  39.5692         87
  39.5878        105
  39.6063         74
  39.6249         95
  39.6435         75
  39.6621         56
  39.6806         75
  39.6992         89
  39.7178         69
  39.7364         77
  39.7549         70
  39.7735         87
  39.7921         76
  39.8107         67
  39.8293         89
  39.8478         73
  39.8664         69
  39.8850         71
  39.9036         93
  39.9221         61
  39.9407         70
  39.9593         93
  39.9779         68
  39.9964         67
  40.0150         67
  40.0336         76
  40.0522         88
  40.0707         78
  40.0893         84
  40.1079         81
  40.1265         79
  40.1450         80
  40.1636         59
  40.1822         63
  40.2008         91
  40.2193         83
  40.2379         70
  40.2565         89
  40.2751         87
  40.2936        105
  40.3122         83
  40.3308         83
  40.3494         96
  40.3679         84
  40.3865         75
  40.4051         85
  40.4237         78
  40.4422         59
  40.4608         93
  40.4794         78
  40.4980         81
  40.5165         79
  40.5351         62
  40.5537         63
  40.5723         87
  40.5908         75
  40.6094         78
  40.6280         75
  40.6466         71
  40.6652         70
  40.6837         75
  40.7023         68
  40.7209         76
  40.7395         67
  40.7580         77
  40.7766         87
  40.7952         78
  40.8138         89
  40.8323         76
  40.8509         74
  40.8695         75
  40.8881         71
  40.9066         74
  40.9252         80
  40.9438        100
  40.9624         81
  40.9809         94
  40.9995         67
  41.0181         69
  41.0367         78
  41.0552         84
  41.0738         79
  41.0924         69
  41.1110         77
  41.1295         79
  41.1481         80
  41.1667         77
  41.1853         83
  41.2038         85
  41.2224         92
  41.2410         86
  41.2596         67
  41.2781         79
  41.2967         87
  41.3153         90
  41.3339        100
  41.3524         64
  41.3710         73
  41.3896         68
  41.4082         72
  41.4268         89
  41.4453         73
  41.4639         76
  41.4825         61
  41.5011         56
  41.5196         65
  41.5382         81
  41.5568        102
  41.5754         83
  41.5939         73
  41.6125         73
  41.6311         85
  41.6497         62
  41.6682         83
  41.6868         83
  41.7054         91
  41.7240         76
  41.7425         94
  41.7611         77
  41.7797         79
  41.7983         80
  41.8168         85
  41.8354         73
  41.8540         63
  41.8726         73
  41.8911         60
  41.9097         85
  41.9283         82
  41.9469         61
  41.9654         81
  41.9840         73
  42.0026         74
  42.0212         82
  42.0397         77
  42.0583         71
  42.0769         82
  42.0955         72
  42.1140         86
  42.1326         64
  42.1512         74
  42.1698         75
  42.1884         71
  42.2069         96
  42.2255         83
  42.2441         85
  42.2627         74
  42.2812         67
  42.2998         75
  42.3184         82
  42.3370         68
  42.3555         92
  42.3741         76
  42.3927         71
  42.4113         65
  42.4298         85
  42.4484         69
  42.4670         77
  42.4856         74
  42.5041         64
  42.5227         70
  42.5413         70
  42.5599         84
  42.5784         82
  42.5970         85
  42.6156         74
  42.6342         81
  42.6527         64
  42.6713         77
  42.6899         79
  42.7085         67
  42.7270         66
  42.7456         77
  42.7642         75
  42.7828         67
  42.8013         69
  42.8199         86
  42.8385         69
  42.8571         71
  42.8756         80
  42.8942         69
  42.9128         91
  42.9314         85
  42.9500         80
  42.9685         72
  42.9871         59
  43.0057         63
  43.0243         67
  43.0428         88
  43.0614         77
  43.0800         72
  43.0986         98
  43.1171         75
  43.1357         84
  43.1543         75
  43.1729         85
  43.1914         72
  43.2100         91
  43.2286        106
  43.2472        103
  43.2657         90
  43.2843         72
  43.3029         92
  43.3215         85
  43.3400         82
  43.3586         69
  43.3772        101
  43.3958         91
  43.4143         92
  43.4329         75
  43.4515         94
  43.4701        100
  43.4886        118
  43.5072        169
  43.5258        119
  43.5444         97
  43.5629         89
  43.5815        100
  43.6001         93
  43.6187        105
  43.6372         99
  43.6558         82
  43.6744         68
  43.6930         83
  43.7116         82
  43.7301         68
  43.7487         84
  43.7673         65
  43.7859         69
  43.8044         71
  43.8230         77
  43.8416         75
  43.8602         76
  43.8787         57
  43.8973         60
  43.9159         63
  43.9345         70
  43.9530         72
  43.9716         74
  43.9902         51
  44.0088         63
  44.0273         84
  44.0459         84
  44.0645         70
  44.0831         73
  44.1016         82
  44.1202         72
  44.1388         66
  44.1574         69
  44.1759         53
  44.1945         69
  44.2131         74
  44.2317         81
  44.2502         69
  44.2688         75
  44.2874         68
  44.3060         71
  44.3245         89
  44.3431         78
  44.3617         73
  44.3803         74
  44.3988         82
  44.4174         93
  44.4360         84
  44.4546         72
  44.4732         84
  44.4917        101
  44.5103         98
  44.5289         84
  44.5475         80
  44.5660         92
  44.5846         86
  44.6032         90
  44.6218         73
  44.6403         65
  44.6589         84
  44.6775         77
  44.6961         99
  44.7146         83
  44.7332         71
  44.7518         70
  44.7704         91
  44.7889         75
  44.8075         72
  44.8261         87
  44.8447         62
  44.8632         76
  44.8818         69
  44.9004         81
  44.9190         75
  44.9375         69
  44.9561         79
  44.9747         65
  44.9933         90
  45.0118         82
  45.0304         63
  45.0490         62
  45.0676         70
  45.0861         70
  45.1047         58
  45.1233         94
  45.1419         81
  45.1604         81
  45.1790         82
  45.1976         69
  45.2162         65
  45.2347         78
  45.2533         73
  45.2719         84
  45.2905         71
  45.3091         62
  45.3276         65
  45.3462         82
  45.3648         75
  45.3834         65
  45.4019         64
  45.4205         81
  45.4391         60
  45.4577         70
  45.4762         63
  45.4948         62
  45.5134         74
  45.5320         64
  45.5505         84
  45.5691         68
  45.5877         72
  45.6063         83
  45.6248         68
  45.6434         61
  45.6620         72
  45.6806         73
  45.6991         61
  45.7177         59
  45.7363         65
  45.7549         73
  45.7734         64
  45.7920         78
  45.8106         63
  45.8292         77
  45.8477         60
  45.8663         74
  45.8849         61
  45.9035         69
  45.9220         66
  45.9406         58
  45.9592         69
  45.9778         65
  45.9963         60
  46.0149         63
  46.0335         62
  46.0521         66
  46.0707         54
  46.0892         67
  46.1078         66
  46.1264         74
  46.1450         50
  46.1635         64
  46.1821         66
  46.2007         57
  46.2193         65
  46.2378         69
  46.2564         63
  46.2750         71
  46.2936         50
  46.3121         63
  46.3307         65
  46.3493         59
  46.3679         48
  46.3864         67
  46.4050         59
  46.4236         62
  46.4422         58
  46.4607         79
  46.4793         64
  46.4979         53
  46.5165         60
  46.5350         58
  46.5536         59
  46.5722         65
  46.5908         58
  46.6093         63
  46.6279         71
  46.6465         69
  46.6651         56
  46.6836         70
  46.7022         83
  46.7208         60
  46.7394         72
  46.7579         75
  46.7765         70
  46.7951         87
  46.8137         60
  46.8323         63
  46.8508         67
  46.8694         65
  46.8880         57
  46.9066         77
  46.9251         78
  46.9437         57
  46.9623         67
  46.9809         73
  46.9994         75
  47.0180         54
  47.0366         68
  47.0552         77
  47.0737         61
  47.0923         65
  47.1109         51
  47.1295         56
  47.1480         72
  47.1666         68
  47.1852         76
  47.2038         68
  47.2223         65
  47.2409         73
  47.2595         69
  47.2781         62
  47.2966         65
  47.3152         68
  47.3338         57
  47.3524         70
  47.3709         62
  47.3895         66
  47.4081         78
  47.4267         63
  47.4452         64
  47.4638         57
  47.4824         73
  47.5010         56
  47.5195         70
  47.5381         81
  47.5567         59
  47.5753         60
  47.5939         65
  47.6124         56
  47.6310         72
  47.6496         49
  47.6682         75
  47.6867         57
  47.7053         51
  47.7239         62
  47.7425         79
  47.7610         61
  47.7796         47
  47.7982         60
  47.8168         63
  47.8353         51
  47.8539         76
  47.8725         55
  47.8911         61
  47.9096         57
  47.9282         79
  47.9468         51
  47.9654         79
  47.9839         48
  48.0025         58
  48.0211         53
  48.0397         60
  48.0582         64
  48.0768         65
  48.0954         69
  48.1140         58
  48.1325         68
  48.1511         62
  48.1697         63
  48.1883         56
  48.2068         60
  48.2254         81
  48.2440         62
  48.2626         58
  48.2811         68
  48.2997         65
  48.3183         70
  48.3369         66
  48.3555         56
  48.3740         71
  48.3926         75
  48.4112         61
  48.4298         63
  48.4483         65
  48.4669         71
  48.4855         66
  48.5041         68
  48.5226         53
  48.5412         45
  48.5598         65
  48.5784         75
  48.5969         52
  48.6155         51
  48.6341         57
  48.6527         71
  48.6712         76
  48.6898         68
  48.7084         67
  48.7270         69
  48.7455         77
  48.7641         64
  48.7827         80
  48.8013         64
  48.8198         63
  48.8384         73
  48.8570         57
  48.8756         62
  48.8941         82
  48.9127         70
  48.9313         94
  48.9499        128
  48.9684        124
  48.9870         70
  49.0056         94
  49.0242         86
  49.0427         82
  49.0613         88
  49.0799         95
  49.0985        112
  49.1171         85
  49.1356         74
  49.1542         58
  49.1728         61
  49.1914         65
  49.2099         62
  49.2285         68
  49.2471         62
  49.2657         64
  49.2842         70
  49.3028         75
  49.3214         59
  49.3400         62
  49.3585         47
  49.3771         58
  49.3957         64
  49.4143         61
  49.4328         65
  49.4514         54
  49.4700         59
  49.4886         63
  49.5071         54
  49.5257         76
  49.5443         76
  49.5629         51
  49.5814         57
  49.6000         84
  49.6186         78
  49.6372         57
  49.6557         69
  49.6743         68
  49.6929         58
  49.7115         55
  49.7300         64
  49.7486         64
  49.7672         67
  49.7858         52
  49.8043         70
  49.8229         49
  49.8415         75
  49.8601         68
  49.8786         51
  49.8972         61
  49.9158         52
  49.9344         61
  49.9530         63
  49.9715         61
  49.9901         74
  50.0087         53
  50.0273         77
  50.0458         55
  50.0644         49
  50.0830         49
  50.1016         58
  50.1201         57
  50.1387         56
  50.1573         80
  50.1759         53
  50.1944         60
  50.2130         82
  50.2316         75
  50.2502         79
  50.2687         75
  50.2873         50
  50.3059         71
  50.3245         59
  50.3430         76
  50.3616         51
  50.3802         78
  50.3988         56
  50.4173         62
  50.4359         74
  50.4545         71
  50.4731         61
  50.4916         50
  50.5102         63
  50.5288         57
  50.5474         63
  50.5659         69
  50.5845         71
  50.6031         63
  50.6217         60
  50.6402         58
  50.6588         65
  50.6774         55
  50.6960         54
  50.7146         63
  50.7331         64
  50.7517         57
  50.7703         67
  50.7889         49
  50.8074         48
  50.8260         56
  50.8446         52
  50.8632         71
  50.8817         63
  50.9003         48
  50.9189         59
  50.9375         65
  50.9560         65
  50.9746         62
  50.9932         53
  51.0118         70
  51.0303         53
  51.0489         62
  51.0675         62
  51.0861         58
  51.1046         46
  51.1232         77
  51.1418         53
  51.1604         64
  51.1789         85
  51.1975         61
  51.2161         44
  51.2347         63
  51.2532         59
  51.2718         70
  51.2904         55
  51.3090         70
  51.3275         67
  51.3461         60
  51.3647         68
  51.3833         43
  51.4018         71
  51.4204         74
  51.4390         67
  51.4576         65
  51.4762         57
  51.4947         66
  51.5133         65
  51.5319         64
  51.5505         71
  51.5690         65
  51.5876         68
  51.6062         63
  51.6248         63
  51.6433         69
  51.6619         80
  51.6805         65
  51.6991         61
  51.7176         55
  51.7362         50
  51.7548         67
  51.7734         72
  51.7919         68
  51.8105         69
  51.8291         72
  51.8477         65
  51.8662         57
  51.8848         53
  51.9034         58
  51.9220         57
  51.9405         69
  51.9591         57
  51.9777         69
  51.9963         53
  52.0148         55
  52.0334         62
  52.0520         49
  52.0706         62
  52.0891         71
  52.1077         62
  52.1263         78
  52.1449         64
  52.1634         64
  52.1820         55
  52.2006         61
  52.2192         60
  52.2378         58
  52.2563         54
  52.2749         47
  52.2935         44
  52.3121         66
  52.3306         46
  52.3492         59
  52.3678         57
  52.3864         36
  52.4049         57
  52.4235         58
  52.4421         53
  52.4607         58
  52.4792         69
  52.4978         54
  52.5164         63
  52.5350         59
  52.5535         53
  52.5721         62
  52.5907         63
  52.6093         72
  52.6278         51
  52.6464         53
  52.6650         53
  52.6836         62
  52.7021         60
  52.7207         55
  52.7393         57
  52.7579         51
  52.7764         73
  52.7950         69
  52.8136         62
  52.8322         63
  52.8507         50
  52.8693         50
  52.8879         63
  52.9065         59
  52.9250         55
  52.9436         73
  52.9622         56
  52.9808         63
  52.9994         64
  53.0179         66
  53.0365         61
  53.0551         66
  53.0737         59
  53.0922         65
  53.1108         62
  53.1294         58
  53.1480         60
  53.1665         45
  53.1851         68
  53.2037         72
  53.2223         54
  53.2408         59
  53.2594         59
  53.2780         62
  53.2966         51
  53.3151         57
  53.3337         61
  53.3523         62
  53.3709         49
  53.3894         63
  53.4080         59
  53.4266         62
  53.4452         51
  53.4637         62
  53.4823         59
  53.5009         55
  53.5195         64
  53.5380         56
  53.5566         65
  53.5752         51
  53.5938         67
  53.6123         54
  53.6309         57
  53.6495         54
  53.6681         61
  53.6866         59
  53.7052         55
  53.7238         57
  53.7424         62
  53.7610         61
  53.7795         75
  53.7981         56
  53.8167         52
  53.8353         61
  53.8538         73
  53.8724         69
  53.8910         63
  53.9096         53
  53.9281         71
  53.9467         74
  53.9653         71
  53.9839         81
  54.0024         76
  54.0210         82
  54.0396         70
  54.0582         63
  54.0767         59
  54.0953         71
  54.1139         62
  54.1325         79
  54.1510         57
  54.1696         80
  54.1882         55
  54.2068         76
  54.2253         66
  54.2439         50
  54.2625         50
  54.2811         70
  54.2996         63
  54.3182         62
  54.3368         64
  54.3554         61
  54.3739         60
  54.3925         58
  54.4111         60
  54.4297         66
  54.4482         54
  54.4668         65
  54.4854         57
  54.5040         56
  54.5225         48
  54.5411         74
  54.5597         57
  54.5783         53
  54.5969         71
  54.6154         59
  54.6340         72
  54.6526         45
  54.6712         58
  54.6897         51
  54.7083         58
  54.7269         67
  54.7455         66
  54.7640         68
  54.7826         59
  54.8012         66
  54.8198         62
  54.8383         72
  54.8569         58
  54.8755         57
  54.8941         56
  54.9126         59
  54.9312         50
  54.9498         65
  54.9684         60
  54.9869         54
  55.0055         53
  55.0241         66
  55.0427         50
  55.0612         65
  55.0798         49
  55.0984         52
  55.1170         57
  55.1355         68
  55.1541         61
  55.1727         58
  55.1913         56
  55.2098         59
  55.2284         59
  55.2470         60
  55.2656         71
  55.2841         53
  55.3027         67
  55.3213         59
  55.3399         46
  55.3585         62
  55.3770         46
  55.3956         64
  55.4142         53
  55.4328         49
  55.4513         43
  55.4699         52
  55.4885         58
  55.5071         64
  55.5256         53
  55.5442         56
  55.5628         71
  55.5814         52
  55.5999         71
  55.6185         55
  55.6371         69
  55.6557         55
  55.6742         56
  55.6928         59
  55.7114         55
  55.7300         53
  55.7485         52
  55.7671         45
  55.7857         61
  55.8043         57
  55.8228         66
  55.8414         63
  55.8600         66
  55.8786         65
  55.8971         55
  55.9157         54
  55.9343         45
  55.9529         50
  55.9714         55
  55.9900         65
  56.0086         62
  56.0272         64
  56.0457         65
  56.0643         64
  56.0829         57
  56.1015         58
  56.1201         71
  56.1386         47
  56.1572         71
  56.1758         56
  56.1944         48
  56.2129         62
  56.2315         74
  56.2501         65
  56.2687         61
  56.2872         54
  56.3058         52
  56.3244         55
  56.3430         61
  56.3615         60
  56.3801         67
  56.3987         55
  56.4173         45
  56.4358         54
  56.4544         77
  56.4730         67
  56.4916         59
  56.5101         51
  56.5287         65
  56.5473         46
  56.5659         59
  56.5844         50
  56.6030         53
  56.6216         64
  56.6402         52
  56.6587         50
  56.6773         64
  56.6959         46
  56.7145         52
  56.7330         54
  56.7516         43
  56.7702         58
  56.7888         52
  56.8073         61
  56.8259         69
  56.8445         49
  56.8631         65
  56.8817         52
  56.9002         63
  56.9188         51
  56.9374         64
  56.9560         49
  56.9745         58
  56.9931         60
  57.0117         44
  57.0303         43
  57.0488         37
  57.0674         53
  57.0860         54
  57.1046         66
  57.1231         55
  57.1417         62
  57.1603         45
  57.1789         56
  57.1974         51
  57.2160         60
  57.2346         55
  57.2532         59
  57.2717         54
  57.2903         46
  57.3089         45
  57.3275         41
  57.3460         54
  57.3646         49
  57.3832         52
  57.4018         51
  57.4203         59
  57.4389         41
  57.4575         51
  57.4761         52
  57.4946         58
  57.5132         59
  57.5318         66
  57.5504         61
  57.5689         62
  57.5875         56
  57.6061         53
  57.6247         66
  57.6433         73
  57.6618         67
  57.6804         45
  57.6990         68
  57.7176         59
  57.7361         63
  57.7547         61
  57.7733         69
  57.7919         54
  57.8104         54
  57.8290         59
  57.8476         53
  57.8662         64
  57.8847         64
  57.9033         57
  57.9219         52
  57.9405         64
  57.9590         46
  57.9776         50
  57.9962         48
  58.0148         57
  58.0333         54
  58.0519         51
  58.0705         52
  58.0891         46
  58.1076         54
  58.1262         54
  58.1448         61
  58.1634         51
  58.1819         58
  58.2005         51
  58.2191         58
  58.2377         55
  58.2562         57
  58.2748         51
  58.2934         75
  58.3120         63
  58.3305         41
  58.3491         48
  58.3677         60
  58.3863         56
  58.4049         55
  58.4234         53
  58.4420         68
  58.4606         43
  58.4792         57
  58.4977         61
  58.5163         58
  58.5349         59
  58.5535         44
  58.5720         55
  58.5906         57
  58.6092         44
  58.6278         56
  58.6463         57
  58.6649         46
  58.6835         60
  58.7021         60
  58.7206         58
  58.7392         48
  58.7578         43
  58.7764         51
  58.7949         58
  58.8135         49
  58.8321         48
  58.8507         61
  58.8692         72
  58.8878         57
  58.9064         45
  58.9250         46
  58.9435         51
  58.9621         59
  58.9807         44
  58.9993         48
  59.0178         66
  59.0364         70
  59.0550         61
  59.0736         53
  59.0921         47
  59.1107         56
  59.1293         50
  59.1479         52
  59.1664         58
  59.1850         61
  59.2036         60
  59.2222         73
  59.2408         56
  59.2593         50
  59.2779         63
  59.2965         61
  59.3151         60
  59.3336         54
  59.3522         60
  59.3708         56
  59.3894         55
  59.4079         49
  59.4265         47
  59.4451         66
  59.4637         51
  59.4822         65
  59.5008         50
  59.5194         62
  59.5380         53
  59.5565         51
  59.5751         61
  59.5937         55
  59.6123         75
  59.6308         48
  59.6494         54
  59.6680         49
  59.6866         68
  59.7051         62
  59.7237         60
  59.7423         55
  59.7609         56
  59.7794         46
  59.7980         57
  59.8166         51
  59.8352         61
  59.8537         62
  59.8723         56
  59.8909         50
  59.9095         48
  59.9280         72
  59.9466         69
  59.9652         57
  59.9838         54
  60.0024         40
