;,2THETA,
5.0000,110
5.0186,117
5.0372,91
5.0557,100
5.0743,105
5.0929,97
5.1115,95
5.1300,87
5.1486,84
5.1672,92
5.1858,95
5.2043,77
5.2229,80
5.2415,98
5.2601,93
5.2786,89
5.2972,85
5.3158,77
5.3344,91
5.3529,84
5.3715,77
5.3901,81
5.4087,92
5.4272,88
5.4458,85
5.4644,78
5.4830,96
5.5015,80
5.5201,79
5.5387,79
5.5573,81
5.5758,87
5.5944,67
5.6130,77
5.6316,92
5.6501,89
5.6687,78
5.6873,57
5.7059,76
5.7244,70
5.7430,80
5.7616,77
5.7802,91
5.7988,97
5.8173,79
5.8359,90
5.8545,72
5.8731,82
5.8916,75
5.9102,79
5.9288,88
5.9474,73
5.9659,79
5.9845,69
6.0031,80
6.0217,76
6.0402,90
6.0588,76
6.0774,74
6.0960,72
6.1145,68
6.1331,66
6.1517,62
6.1703,66
6.1888,74
6.2074,79
6.2260,64
6.2446,78
6.2631,60
6.2817,55
6.3003,69
6.3189,71
6.3374,71
6.3560,61
6.3746,63
6.3932,74
6.4117,56
6.4303,54
6.4489,53
6.4675,58
6.4860,71
6.5046,73
6.5232,64
6.5418,63
6.5604,69
6.5789,51
6.5975,62
6.6161,62
6.6347,59
6.6532,63
6.6718,72
6.6904,72
6.7090,65
6.7275,65
6.7461,65
6.7647,71
6.7833,59
6.8018,75
6.8204,73
6.8390,76
6.8576,64
6.8761,58
6.8947,76
6.9133,61
6.9319,55
6.9504,72
6.9690,67
6.9876,55
7.0062,59
7.0247,63
7.0433,55
7.0619,67
7.0805,61
7.0990,76
7.1176,60
7.1362,65
7.1548,50
7.1733,64
7.1919,64
7.2105,65
7.2291,65
7.2476,43
7.2662,63
7.2848,63
7.3034,48
7.3220,50
7.3405,61
7.3591,62
7.3777,59
7.3963,41
7.4148,53
7.4334,53
7.4520,48
7.4706,58
7.4891,57
7.5077,62
7.5263,55
7.5449,64
7.5634,61
7.5820,62
7.6006,54
7.6192,70
7.6377,50
7.6563,66
7.6749,67
7.6935,68
7.7120,67
7.7306,47
7.7492,83
7.7678,49
7.7863,60
7.8049,59
7.8235,59
7.8421,77
7.8606,61
7.8792,53
7.8978,70
7.9164,65
7.9349,57
7.9535,63
7.9721,71
7.9907,65
8.0092,75
8.0278,61
8.0464,70
8.0650,69
8.0835,61
8.1021,66
8.1207,68
8.1393,84
8.1579,75
8.1764,55
8.1950,81
8.2136,67
8.2322,64
8.2507,65
8.2693,65
8.2879,77
8.3065,71
8.3250,71
8.3436,71
8.3622,69
8.3808,69
8.3993,59
8.4179,68
8.4365,71
8.4551,62
8.4736,81
8.4922,92
8.5108,84
8.5294,71
8.5479,73
8.5665,70
8.5851,71
8.6037,74
8.6222,82
8.6408,83
8.6594,86
8.6780,65
8.6965,78
8.7151,69
8.7337,74
8.7523,83
8.7708,86
8.7894,67
8.8080,83
8.8266,72
8.8451,81
8.8637,95
8.8823,74
8.9009,81
8.9195,70
8.9380,84
8.9566,78
8.9752,93
8.9938,87
9.0123,76
9.0309,79
9.0495,69
9.0681,78
9.0866,79
9.1052,95
9.1238,84
9.1424,76
9.1609,88
9.1795,76
9.1981,85
9.2167,85
9.2352,80
9.2538,78
9.2724,71
9.2910,76
9.3095,97
9.3281,74
9.3467,88
9.3653,86
9.3838,112
9.4024,88
9.4210,82
9.4396,80
9.4581,84
9.4767,81
9.4953,90
9.5139,87
9.5324,66
9.5510,86
9.5696,89
9.5882,76
9.6067,82
9.6253,75
9.6439,78
9.6625,82
9.6811,83
9.6996,79
9.7182,78
9.7368,101
9.7554,89
9.7739,79
9.7925,77
9.8111,95
9.8297,87
9.8482,87
9.8668,85
9.8854,102
9.9040,79
9.9225,90
9.9411,91
9.9597,89
9.9783,90
9.9968,83
10.0154,82
10.0340,90
10.0526,82
10.0711,81
10.0897,70
10.1083,84
10.1269,81
10.1454,70
10.1640,94
10.1826,83
10.2012,96
10.2197,108
10.2383,79
10.2569,91
10.2755,90
10.2940,75
10.3126,102
10.3312,78
10.3498,106
10.3683,82
10.3869,95
10.4055,94
10.4241,82
10.4427,105
10.4612,75
10.4798,97
10.4984,80
10.5170,84
10.5355,85
10.5541,84
10.5727,81
10.5913,81
10.6098,82
10.6284,102
10.6470,76
10.6656,77
10.6841,79
10.7027,86
10.7213,82
10.7399,94
10.7584,87
10.7770,81
10.7956,87
10.8142,90
10.8327,83
10.8513,87
10.8699,86
10.8885,106
10.9070,89
10.9256,82
10.9442,89
10.9628,87
10.9813,86
10.9999,88
11.0185,102
11.0371,89
11.0556,82
11.0742,79
11.0928,91
11.1114,82
11.1299,83
11.1485,106
11.1671,60
11.1857,92
11.2043,101
11.2228,81
11.2414,77
11.2600,97
11.2786,80
11.2971,69
11.3157,86
11.3343,81
11.3529,100
11.3714,72
11.3900,66
11.4086,90
11.4272,105
11.4457,86
11.4643,108
11.4829,86
11.5015,89
11.5200,96
11.5386,113
11.5572,81
11.5758,94
11.5943,90
11.6129,69
11.6315,88
11.6501,101
11.6686,89
11.6872,91
11.7058,88
11.7244,82
11.7429,70
11.7615,87
11.7801,83
11.7987,88
11.8172,85
11.8358,85
11.8544,74
11.8730,74
11.8915,85
11.9101,90
11.9287,80
11.9473,93
11.9659,82
11.9844,78
12.0030,88
12.0216,82
12.0402,98
12.0587,76
12.0773,96
12.0959,87
12.1145,81
12.1330,76
12.1516,85
12.1702,82
12.1888,92
12.2073,71
12.2259,66
12.2445,83
12.2631,78
12.2816,81
12.3002,89
12.3188,76
12.3374,88
12.3559,80
12.3745,85
12.3931,69
12.4117,84
12.4302,88
12.4488,68
12.4674,92
12.4860,84
12.5045,76
12.5231,94
12.5417,77
12.5603,86
12.5788,74
12.5974,64
12.6160,66
12.6346,80
12.6531,74
12.6717,73
12.6903,99
12.7089,91
12.7274,82
12.7460,71
12.7646,64
12.7832,76
12.8018,68
12.8203,85
12.8389,78
12.8575,85
12.8761,70
12.8946,69
12.9132,83
12.9318,74
12.9504,67
12.9689,76
12.9875,58
13.0061,68
13.0247,92
13.0432,65
13.0618,66
13.0804,73
13.0990,81
13.1175,80
13.1361,63
13.1547,60
13.1733,90
13.1918,93
13.2104,77
13.2290,54
13.2476,84
13.2661,95
13.2847,86
13.3033,67
13.3219,81
13.3404,70
13.3590,61
13.3776,76
13.3962,62
13.4147,82
13.4333,69
13.4519,76
13.4705,66
13.4890,57
13.5076,78
13.5262,68
13.5448,70
13.5634,78
13.5819,79
13.6005,71
13.6191,53
13.6377,68
13.6562,76
13.6748,61
13.6934,75
13.7120,64
13.7305,57
13.7491,67
13.7677,65
13.7863,75
13.8048,76
13.8234,71
13.8420,67
13.8606,72
13.8791,73
13.8977,55
13.9163,84
13.9349,61
13.9534,65
13.9720,70
13.9906,63
14.0092,72
14.0277,75
14.0463,71
14.0649,70
14.0835,69
14.1020,77
14.1206,67
14.1392,51
14.1578,79
14.1763,80
14.1949,49
14.2135,60
14.2321,45
14.2506,69
14.2692,64
14.2878,54
14.3064,60
14.3250,68
14.3435,51
14.3621,65
14.3807,65
14.3993,69
14.4178,73
14.4364,75
14.4550,57
14.4736,57
14.4921,61
14.5107,58
14.5293,69
14.5479,72
14.5664,46
14.5850,72
14.6036,50
14.6222,61
14.6407,70
14.6593,63
14.6779,56
14.6965,60
14.7150,60
14.7336,71
14.7522,60
14.7708,71
14.7893,52
14.8079,65
14.8265,53
14.8451,62
14.8636,62
14.8822,58
14.9008,66
14.9194,50
14.9379,67
14.9565,54
14.9751,58
14.9937,66
15.0122,77
15.0308,63
15.0494,72
15.0680,61
15.0866,58
15.1051,71
15.1237,58
15.1423,60
15.1609,57
15.1794,60
15.1980,64
15.2166,68
15.2352,68
15.2537,46
15.2723,56
15.2909,63
15.3095,67
15.3280,73
15.3466,54
15.3652,62
15.3838,63
15.4023,53
15.4209,52
15.4395,51
15.4581,57
15.4766,63
15.4952,55
15.5138,65
15.5324,72
15.5509,66
15.5695,53
15.5881,61
15.6067,66
15.6252,64
15.6438,65
15.6624,81
15.6810,62
15.6995,49
15.7181,56
15.7367,56
15.7553,60
15.7738,48
15.7924,67
15.8110,63
15.8296,61
15.8482,55
15.8667,55
15.8853,61
15.9039,59
15.9225,66
15.9410,45
15.9596,69
15.9782,58
15.9968,55
16.0153,62
16.0339,62
16.0525,70
16.0711,77
16.0896,66
16.1082,66
16.1268,71
16.1454,60
16.1639,65
16.1825,53
16.2011,62
16.2197,63
16.2382,40
16.2568,55
16.2754,66
16.2940,68
16.3125,66
16.3311,59
16.3497,70
16.3683,46
16.3868,58
16.4054,69
16.4240,66
16.4426,49
16.4611,53
16.4797,62
16.4983,74
16.5169,59
16.5354,52
16.5540,63
16.5726,47
16.5912,64
16.6097,63
16.6283,59
16.6469,48
16.6655,54
16.6841,66
16.7026,51
16.7212,56
16.7398,46
16.7584,58
16.7769,69
16.7955,63
16.8141,55
16.8327,59
16.8512,53
16.8698,74
16.8884,71
16.9070,60
16.9255,49
16.9441,57
16.9627,51
16.9813,61
16.9998,62
17.0184,60
17.0370,65
17.0556,54
17.0741,52
17.0927,50
17.1113,61
17.1299,51
17.1484,47
17.1670,63
17.1856,62
17.2042,55
17.2227,77
17.2413,65
17.2599,54
17.2785,48
17.2970,51
17.3156,64
17.3342,46
17.3528,61
17.3713,62
17.3899,57
17.4085,50
17.4271,68
17.4457,63
17.4642,66
17.4828,66
17.5014,50
17.5200,56
17.5385,62
17.5571,57
17.5757,60
17.5943,59
17.6128,61
17.6314,60
17.6500,58
17.6686,62
17.6871,63
17.7057,64
17.7243,56
17.7429,68
17.7614,61
17.7800,65
17.7986,66
17.8172,58
17.8357,81
17.8543,54
17.8729,62
17.8915,55
17.9100,60
17.9286,48
17.9472,59
17.9658,51
17.9843,62
18.0029,49
18.0215,64
18.0401,46
18.0586,57
18.0772,72
18.0958,64
18.1144,65
18.1329,60
18.1515,65
18.1701,58
18.1887,55
18.2073,55
18.2258,54
18.2444,69
18.2630,69
18.2816,56
18.3001,46
18.3187,52
18.3373,66
18.3559,68
18.3744,62
18.3930,69
18.4116,47
18.4302,65
18.4487,51
18.4673,44
18.4859,65
18.5045,53
18.5230,49
18.5416,53
18.5602,65
18.5788,67
18.5973,49
18.6159,47
18.6345,65
18.6531,58
18.6716,70
18.6902,71
18.7088,60
18.7274,65
18.7459,69
18.7645,50
18.7831,53
18.8017,76
18.8202,55
18.8388,65
18.8574,51
18.8760,63
18.8945,62
18.9131,63
18.9317,59
18.9503,58
18.9689,42
18.9874,72
19.0060,50
19.0246,59
19.0432,58
19.0617,45
19.0803,57
19.0989,71
19.1175,68
19.1360,66
19.1546,56
19.1732,60
19.1918,60
19.2103,49
19.2289,63
19.2475,65
19.2661,53
19.2846,70
19.3032,65
19.3218,74
19.3404,55
19.3589,62
19.3775,63
19.3961,68
19.4147,52
19.4332,63
19.4518,54
19.4704,57
19.4890,57
19.5075,62
19.5261,58
19.5447,65
19.5633,66
19.5818,71
19.6004,60
19.6190,66
19.6376,71
19.6561,71
19.6747,82
19.6933,80
19.7119,74
19.7305,58
19.7490,70
19.7676,73
19.7862,64
19.8048,62
19.8233,79
19.8419,69
19.8605,68
19.8791,66
19.8976,80
19.9162,63
19.9348,72
19.9534,67
19.9719,81
19.9905,74
20.0091,65
20.0277,77
20.0462,70
20.0648,72
20.0834,72
20.1020,45
20.1205,70
20.1391,64
20.1577,59
20.1763,72
20.1948,72
20.2134,61
20.2320,75
20.2506,75
20.2691,55
20.2877,67
20.3063,91
20.3249,71
20.3434,56
20.3620,58
20.3806,62
20.3992,86
20.4177,67
20.4363,74
20.4549,61
20.4735,72
20.4921,62
20.5106,72
20.5292,75
20.5478,63
20.5664,66
20.5849,80
20.6035,69
20.6221,70
20.6407,71
20.6592,73
20.6778,72
20.6964,62
20.7150,67
20.7335,70
20.7521,67
20.7707,69
20.7893,62
20.8078,64
20.8264,88
20.8450,82
20.8636,63
20.8821,56
20.9007,61
20.9193,81
20.9379,70
20.9564,64
20.9750,68
20.9936,70
21.0122,76
21.0307,73
21.0493,68
21.0679,65
21.0865,72
21.1050,62
21.1236,75
21.1422,83
21.1608,73
21.1793,111
21.1979,118
21.2165,103
21.2351,107
21.2537,116
21.2722,106
21.2908,111
21.3094,125
21.3280,120
21.3465,170
21.3651,206
21.3837,119
21.4023,145
21.4208,128
21.4394,103
21.4580,76
21.4766,63
21.4951,69
21.5137,71
21.5323,77
21.5509,76
21.5694,52
21.5880,78
21.6066,78
21.6252,90
21.6437,85
21.6623,70
21.6809,76
21.6995,62
21.7180,55
21.7366,75
21.7552,68
21.7738,61
21.7923,68
21.8109,66
21.8295,79
21.8481,61
21.8666,60
21.8852,72
21.9038,78
21.9224,67
21.9409,50
21.9595,72
21.9781,85
21.9967,87
22.0152,78
22.0338,70
22.0524,72
22.0710,61
22.0896,59
22.1081,88
22.1267,67
22.1453,78
22.1639,72
22.1824,67
22.2010,69
22.2196,85
22.2382,81
22.2567,80
22.2753,76
22.2939,75
22.3125,75
22.3310,74
22.3496,90
22.3682,72
22.3868,63
22.4053,62
22.4239,80
22.4425,69
22.4611,69
22.4796,73
22.4982,65
22.5168,69
22.5354,73
22.5539,75
22.5725,58
22.5911,64
22.6097,63
22.6282,70
22.6468,69
22.6654,66
22.6840,94
22.7025,68
22.7211,88
22.7397,77
22.7583,82
22.7768,63
22.7954,73
22.8140,74
22.8326,72
22.8512,74
22.8697,69
22.8883,75
22.9069,62
22.9255,76
22.9440,67
22.9626,53
22.9812,77
22.9998,64
23.0183,66
23.0369,64
23.0555,75
23.0741,68
23.0926,62
23.1112,84
23.1298,81
23.1484,79
23.1669,70
23.1855,76
23.2041,79
23.2227,75
23.2412,79
23.2598,67
23.2784,78
23.2970,66
23.3155,75
23.3341,71
23.3527,70
23.3713,80
23.3898,80
23.4084,77
23.4270,74
23.4456,67
23.4641,80
23.4827,74
23.5013,85
23.5199,71
23.5384,70
23.5570,75
23.5756,69
23.5942,98
23.6128,67
23.6313,65
23.6499,62
23.6685,73
23.6871,59
23.7056,74
23.7242,73
23.7428,82
23.7614,69
23.7799,59
23.7985,81
23.8171,75
23.8357,83
23.8542,74
23.8728,83
23.8914,79
23.9100,77
23.9285,72
23.9471,72
23.9657,80
23.9843,82
24.0028,82
24.0214,62
24.0400,81
24.0586,77
24.0771,77
24.0957,67
24.1143,69
24.1329,71
24.1514,84
24.1700,69
24.1886,74
24.2072,76
24.2257,84
24.2443,75
24.2629,87
24.2815,106
24.3000,93
24.3186,88
24.3372,88
24.3558,90
24.3744,67
24.3929,75
24.4115,74
24.4301,76
24.4487,69
24.4672,75
24.4858,79
24.5044,79
24.5230,76
24.5415,76
24.5601,70
24.5787,78
24.5973,82
24.6158,70
24.6344,71
24.6530,80
24.6716,62
24.6901,59
24.7087,74
24.7273,79
24.7459,76
24.7644,72
24.7830,73
24.8016,81
24.8202,76
24.8387,87
24.8573,87
24.8759,78
24.8945,74
24.9130,64
24.9316,77
24.9502,80
24.9688,86
24.9873,79
25.0059,61
25.0245,72
25.0431,61
25.0616,64
25.0802,46
25.0988,60
25.1174,92
25.1360,65
25.1545,72
25.1731,71
25.1917,66
25.2103,71
25.2288,78
25.2474,57
25.2660,73
25.2846,68
25.3031,92
25.3217,78
25.3403,65
25.3589,76
25.3774,69
25.3960,78
25.4146,69
25.4332,71
25.4517,61
25.4703,60
25.4889,61
25.5075,69
25.5260,87
25.5446,76
25.5632,63
25.5818,79
25.6003,60
25.6189,58
25.6375,66
25.6561,68
25.6746,70
25.6932,67
25.7118,69
25.7304,67
25.7489,73
25.7675,81
25.7861,69
25.8047,82
25.8232,65
25.8418,68
25.8604,70
25.8790,57
25.8976,64
25.9161,65
25.9347,68
25.9533,70
25.9719,72
25.9904,64
26.0090,71
26.0276,57
26.0462,69
26.0647,74
26.0833,62
26.1019,66
26.1205,72
26.1390,67
26.1576,74
26.1762,64
26.1948,71
26.2133,61
26.2319,71
26.2505,70
26.2691,65
26.2876,67
26.3062,69
26.3248,76
26.3434,78
26.3619,79
26.3805,83
26.3991,69
26.4177,72
26.4362,68
26.4548,63
26.4734,79
26.4920,64
26.5105,62
26.5291,58
26.5477,62
26.5663,71
26.5848,73
26.6034,69
26.6220,69
26.6406,73
26.6591,66
26.6777,63
26.6963,66
26.7149,54
26.7335,69
26.7520,88
26.7706,66
26.7892,64
26.8078,76
26.8263,70
26.8449,57
26.8635,64
26.8821,68
26.9006,73
26.9192,66
26.9378,74
26.9564,74
26.9749,67
26.9935,74
27.0121,86
27.0307,86
27.0492,76
27.0678,55
27.0864,82
27.1050,74
27.1235,56
27.1421,60
27.1607,79
27.1793,81
27.1978,96
27.2164,77
27.2350,95
27.2536,98
27.2721,87
27.2907,83
27.3093,86
27.3279,63
27.3464,80
27.3650,63
27.3836,71
27.4022,66
27.4207,69
27.4393,56
27.4579,70
27.4765,80
27.4951,69
27.5136,67
27.5322,67
27.5508,83
27.5694,51
27.5879,74
27.6065,60
27.6251,77
27.6437,66
27.6622,77
27.6808,54
27.6994,66
27.7180,58
27.7365,61
27.7551,71
27.7737,58
27.7923,63
27.8108,64
27.8294,59
27.8480,42
27.8666,73
27.8851,68
27.9037,72
27.9223,68
27.9409,55
27.9594,56
27.9780,85
27.9966,71
28.0152,52
28.0337,58
28.0523,55
28.0709,63
28.0895,62
28.1080,65
28.1266,62
28.1452,63
28.1638,62
28.1823,60
28.2009,74
28.2195,61
28.2381,46
28.2567,68
28.2752,65
28.2938,81
28.3124,66
28.3310,71
28.3495,66
28.3681,57
28.3867,64
28.4053,61
28.4238,55
28.4424,52
28.4610,60
28.4796,51
28.4981,60
28.5167,86
28.5353,74
28.5539,65
28.5724,60
28.5910,62
28.6096,66
28.6282,57
28.6467,55
28.6653,59
28.6839,65
28.7025,51
28.7210,63
28.7396,54
28.7582,51
28.7768,71
28.7953,77
28.8139,58
28.8325,48
28.8511,52
28.8696,61
28.8882,46
28.9068,62
28.9254,55
28.9439,62
28.9625,61
28.9811,58
28.9997,68
29.0183,52
29.0368,78
29.0554,59
29.0740,57
29.0926,49
29.1111,66
29.1297,73
29.1483,55
29.1669,53
29.1854,58
29.2040,48
29.2226,57
29.2412,59
29.2597,57
29.2783,49
29.2969,51
29.3155,58
29.3340,56
29.3526,68
29.3712,47
29.3898,62
29.4083,56
29.4269,60
29.4455,62
29.4641,78
29.4826,70
29.5012,42
29.5198,62
29.5384,72
29.5569,59
29.5755,62
29.5941,60
29.6127,57
29.6312,58
29.6498,54
29.6684,63
29.6870,47
29.7055,46
29.7241,62
29.7427,61
29.7613,58
29.7799,64
29.7984,45
29.8170,50
29.8356,52
29.8542,48
29.8727,73
29.8913,53
29.9099,47
29.9285,44
29.9470,66
29.9656,62
29.9842,61
30.0028,63
30.0213,57
30.0399,41
30.0585,54
30.0771,58
30.0956,72
30.1142,58
30.1328,54
30.1514,71
30.1699,62
30.1885,60
30.2071,58
30.2257,64
30.2442,57
30.2628,71
30.2814,54
30.3000,65
30.3185,54
30.3371,70
30.3557,106
30.3743,114
30.3928,128
30.4114,97
30.4300,77
30.4486,88
30.4671,88
30.4857,72
30.5043,70
30.5229,55
30.5415,50
30.5600,67
30.5786,58
30.5972,57
30.6158,51
30.6343,63
30.6529,42
30.6715,64
30.6901,61
30.7086,44
30.7272,52
30.7458,40
30.7644,53
30.7829,56
30.8015,60
30.8201,63
30.8387,46
30.8572,48
30.8758,50
30.8944,59
30.9130,49
30.9315,60
30.9501,59
30.9687,42
30.9873,58
31.0058,63
31.0244,61
31.0430,56
31.0616,59
31.0801,55
31.0987,74
31.1173,33
31.1359,46
31.1544,59
31.1730,55
31.1916,51
31.2102,45
31.2287,57
31.2473,59
31.2659,54
31.2845,44
31.3030,49
31.3216,64
31.3402,49
31.3588,50
31.3774,48
31.3959,45
31.4145,45
31.4331,47
31.4517,47
31.4702,47
31.4888,57
31.5074,66
31.5260,48
31.5445,51
31.5631,52
31.5817,46
31.6003,41
31.6188,50
31.6374,51
31.6560,43
31.6746,54
31.6931,49
31.7117,54
31.7303,55
31.7489,44
31.7674,45
31.7860,52
31.8046,52
31.8232,58
31.8417,54
31.8603,44
31.8789,35
31.8975,39
31.9160,38
31.9346,58
31.9532,54
31.9718,46
31.9903,35
32.0089,48
32.0275,42
32.0461,60
32.0646,54
32.0832,60
32.1018,48
32.1204,45
32.1390,46
32.1575,51
32.1761,44
32.1947,36
32.2133,43
32.2318,52
32.2504,53
32.2690,37
32.2876,40
32.3061,51
32.3247,43
32.3433,38
32.3619,47
32.3804,44
32.3990,68
32.4176,53
32.4362,56
32.4547,57
32.4733,59
32.4919,62
32.5105,56
32.5290,53
32.5476,53
32.5662,56
32.5848,55
32.6033,67
32.6219,48
32.6405,47
32.6591,55
32.6776,45
32.6962,48
32.7148,44
32.7334,43
32.7519,45
32.7705,51
32.7891,45
32.8077,40
32.8262,49
32.8448,57
32.8634,36
32.8820,43
32.9006,50
32.9191,45
32.9377,37
32.9563,46
32.9749,43
32.9934,60
33.0120,43
33.0306,51
33.0492,31
33.0677,38
33.0863,59
33.1049,55
33.1235,32
33.1420,45
33.1606,33
33.1792,42
33.1978,36
33.2163,45
33.2349,48
33.2535,53
33.2721,56
33.2906,58
33.3092,42
33.3278,59
33.3464,36
33.3649,41
33.3835,36
33.4021,45
33.4207,36
33.4392,49
33.4578,46
33.4764,49
33.4950,45
33.5135,46
33.5321,50
33.5507,46
33.5693,64
33.5878,44
33.6064,21
33.6250,37
33.6436,38
33.6622,40
33.6807,41
33.6993,37
33.7179,54
33.7365,48
33.7550,39
33.7736,45
33.7922,43
33.8108,34
33.8293,38
33.8479,49
33.8665,42
33.8851,36
33.9036,33
33.9222,37
33.9408,37
33.9594,44
33.9779,36
33.9965,48
34.0151,44
34.0337,41
34.0522,47
34.0708,39
34.0894,42
34.1080,40
34.1265,38
34.1451,48
34.1637,37
34.1823,42
34.2008,55
34.2194,46
34.2380,47
34.2566,50
34.2751,48
34.2937,39
34.3123,47
34.3309,42
34.3494,41
34.3680,31
34.3866,39
34.4052,39
34.4238,39
34.4423,35
34.4609,31
34.4795,38
34.4981,44
34.5166,46
34.5352,35
34.5538,45
34.5724,41
34.5909,52
34.6095,38
34.6281,45
34.6467,45
34.6652,37
34.6838,51
34.7024,53
34.7210,44
34.7395,68
34.7581,60
34.7767,51
34.7953,59
34.8138,43
34.8324,37
34.8510,45
34.8696,47
34.8881,43
34.9067,42
34.9253,58
34.9439,37
34.9624,41
34.9810,45
34.9996,41
35.0182,45
35.0367,38
35.0553,47
35.0739,53
35.0925,31
35.1110,36
35.1296,44
35.1482,42
35.1668,31
35.1854,35
35.2039,32
35.2225,34
35.2411,35
35.2597,46
35.2782,52
35.2968,33
35.3154,35
35.3340,44
35.3525,39
35.3711,42
35.3897,40
35.4083,40
35.4268,45
35.4454,45
35.4640,41
35.4826,39
35.5011,39
35.5197,41
35.5383,33
35.5569,35
35.5754,45
35.5940,31
35.6126,36
35.6312,37
35.6497,34
35.6683,35
35.6869,46
35.7055,33
35.7240,33
35.7426,31
35.7612,42
35.7798,41
35.7983,39
35.8169,42
35.8355,34
35.8541,43
35.8726,30
35.8912,32
35.9098,42
35.9284,40
35.9469,40
35.9655,39
35.9841,28
36.0027,32
36.0213,47
36.0398,47
36.0584,36
36.0770,42
36.0956,36
36.1141,34
36.1327,46
36.1513,41
36.1699,37
36.1884,32
36.2070,38
36.2256,39
36.2442,39
36.2627,35
36.2813,29
36.2999,14
36.3185,33
36.3370,31
36.3556,33
36.3742,44
36.3928,34
36.4113,36
36.4299,34
36.4485,27
36.4671,42
36.4856,37
36.5042,30
36.5228,39
36.5414,35
36.5599,30
36.5785,33
36.5971,34
36.6157,27
36.6342,29
36.6528,42
36.6714,36
36.6900,28
36.7085,32
36.7271,33
36.7457,24
36.7643,34
36.7829,33
36.8014,34
36.8200,33
36.8386,34
36.8572,33
36.8757,31
36.8943,32
36.9129,31
36.9315,30
36.9500,39
36.9686,36
36.9872,36
37.0058,36
37.0243,30
37.0429,32
37.0615,35
37.0801,39
37.0986,29
37.1172,24
37.1358,30
37.1544,27
37.1729,34
37.1915,28
37.2101,36
37.2287,31
37.2472,25
37.2658,39
37.2844,34
37.3030,29
37.3215,35
37.3401,36
37.3587,49
37.3773,41
37.3958,57
37.4144,53
37.4330,60
37.4516,51
37.4701,45
37.4887,44
37.5073,42
37.5259,46
37.5445,47
37.5630,38
37.5816,45
37.6002,29
37.6188,32
37.6373,34
37.6559,40
37.6745,39
37.6931,37
37.7116,21
37.7302,37
37.7488,36
37.7674,39
37.7859,27
37.8045,42
37.8231,37
37.8417,27
37.8602,34
37.8788,26
37.8974,44
37.9160,27
37.9345,37
37.9531,34
37.9717,31
37.9903,35
38.0088,23
38.0274,21
38.0460,31
38.0646,27
38.0831,32
38.1017,32
38.1203,29
38.1389,20
38.1574,32
38.1760,30
38.1946,35
38.2132,25
38.2317,30
38.2503,33
38.2689,20
38.2875,29
38.3061,38
38.3246,34
38.3432,37
38.3618,39
38.3804,33
38.3989,36
38.4175,35
38.4361,38
38.4547,15
38.4732,27
38.4918,31
38.5104,31
38.5290,29
38.5475,41
38.5661,37
38.5847,32
38.6033,37
38.6218,33
38.6404,29
38.6590,26
38.6776,28
38.6961,38
38.7147,36
38.7333,34
38.7519,22
38.7704,34
38.7890,38
38.8076,34
38.8262,52
38.8447,34
38.8633,26
38.8819,30
38.9005,22
38.9190,37
38.9376,31
38.9562,20
38.9748,31
38.9933,23
39.0119,42
39.0305,32
39.0491,34
39.0677,36
39.0862,23
39.1048,30
39.1234,39
39.1420,17
39.1605,24
39.1791,26
39.1977,30
39.2163,38
39.2348,36
39.2534,23
39.2720,28
39.2906,31
39.3091,25
39.3277,36
39.3463,32
39.3649,26
39.3834,18
39.4020,26
39.4206,27
39.4392,24
39.4577,31
39.4763,30
39.4949,27
39.5135,26
39.5320,23
39.5506,26
39.5692,38
39.5878,33
39.6063,27
39.6249,28
39.6435,26
39.6621,31
39.6806,32
39.6992,35
39.7178,27
39.7364,20
39.7549,27
39.7735,28
39.7921,36
39.8107,38
39.8293,34
39.8478,18
39.8664,30
39.8850,32
39.9036,25
39.9221,31
39.9407,29
39.9593,32
39.9779,21
39.9964,23
40.0150,12
40.0336,20
40.0522,26
40.0707,15
40.0893,18
40.1079,35
40.1265,27
40.1450,27
40.1636,23
40.1822,28
40.2008,22
40.2193,21
40.2379,33
40.2565,22
40.2751,25
40.2936,25
40.3122,18
40.3308,29
40.3494,30
40.3679,15
40.3865,31
40.4051,30
40.4237,19
40.4422,22
40.4608,25
40.4794,28
40.4980,26
40.5165,31
40.5351,23
40.5537,26
40.5723,31
40.5908,26
40.6094,23
40.6280,24
40.6466,23
40.6652,35
40.6837,33
40.7023,32
40.7209,32
40.7395,24
40.7580,42
40.7766,24
40.7952,27
40.8138,23
40.8323,30
40.8509,26
40.8695,35
40.8881,35
40.9066,18
40.9252,31
40.9438,29
40.9624,34
40.9809,37
40.9995,29
41.0181,30
41.0367,33
41.0552,24
41.0738,25
41.0924,30
41.1110,31
41.1295,29
41.1481,29
41.1667,29
41.1853,24
41.2038,25
41.2224,31
41.2410,30
41.2596,26
41.2781,31
41.2967,37
41.3153,25
41.3339,27
41.3524,27
41.3710,21
41.3896,19
41.4082,29
41.4268,39
41.4453,28
41.4639,22
41.4825,30
41.5011,26
41.5196,21
41.5382,25
41.5568,30
41.5754,26
41.5939,17
41.6125,20
41.6311,30
41.6497,23
41.6682,14
41.6868,37
41.7054,37
41.7240,26
41.7425,29
41.7611,45
41.7797,28
41.7983,18
41.8168,24
41.8354,25
41.8540,26
41.8726,29
41.8911,39
41.9097,33
41.9283,31
41.9469,21
41.9654,22
41.9840,30
42.0026,29
42.0212,25
42.0397,24
42.0583,26
42.0769,26
42.0955,25
42.1140,40
42.1326,27
42.1512,26
42.1698,25
42.1884,31
42.2069,26
42.2255,29
42.2441,18
42.2627,24
42.2812,27
42.2998,39
42.3184,19
42.3370,26
42.3555,35
42.3741,31
42.3927,21
42.4113,26
42.4298,27
42.4484,30
42.4670,30
42.4856,31
42.5041,28
42.5227,35
42.5413,35
42.5599,27
42.5784,27
42.5970,35
42.6156,31
42.6342,28
42.6527,23
42.6713,32
42.6899,31
42.7085,30
42.7270,34
42.7456,23
42.7642,25
42.7828,25
42.8013,33
42.8199,37
42.8385,26
42.8571,18
42.8756,23
42.8942,28
42.9128,17
42.9314,31
42.9500,19
42.9685,32
42.9871,17
43.0057,20
43.0243,34
43.0428,24
43.0614,25
43.0800,26
43.0986,31
43.1171,24
43.1357,31
43.1543,23
43.1729,23
43.1914,33
43.2100,32
43.2286,40
43.2472,50
43.2657,30
43.2843,40
43.3029,32
43.3215,32
43.3400,33
43.3586,35
43.3772,26
43.3958,40
43.4143,27
43.4329,28
43.4515,22
43.4701,39
43.4886,39
43.5072,58
43.5258,53
43.5444,45
43.5629,32
43.5815,28
43.6001,31
43.6187,51
43.6372,34
43.6558,30
43.6744,39
43.6930,23
43.7116,24
43.7301,25
43.7487,27
43.7673,28
43.7859,24
43.8044,27
43.8230,25
43.8416,32
43.8602,41
43.8787,30
43.8973,33
43.9159,28
43.9345,22
43.9530,27
43.9716,25
43.9902,30
44.0088,17
44.0273,25
44.0459,17
44.0645,21
44.0831,28
44.1016,42
44.1202,32
44.1388,26
44.1574,31
44.1759,28
44.1945,26
44.2131,22
44.2317,33
44.2502,25
44.2688,24
44.2874,24
44.3060,23
44.3245,24
44.3431,26
44.3617,20
44.3803,27
44.3988,22
44.4174,30
44.4360,32
44.4546,28
44.4732,20
44.4917,25
44.5103,32
44.5289,30
44.5475,34
44.5660,25
44.5846,31
44.6032,29
44.6218,22
44.6403,31
44.6589,28
44.6775,31
44.6961,25
44.7146,24
44.7332,28
44.7518,29
44.7704,20
44.7889,24
44.8075,19
44.8261,26
44.8447,29
44.8632,24
44.8818,26
44.9004,21
44.9190,26
44.9375,25
44.9561,29
44.9747,31
44.9933,27
45.0118,23
45.0304,26
45.0490,16
45.0676,22
45.0861,27
45.1047,26
45.1233,22
45.1419,24
45.1604,26
45.1790,23
45.1976,30
45.2162,21
45.2347,25
45.2533,21
45.2719,26
45.2905,30
45.3091,29
45.3276,31
45.3462,30
45.3648,25
45.3834,23
45.4019,28
45.4205,25
45.4391,22
45.4577,24
45.4762,18
45.4948,30
45.5134,34
45.5320,31
45.5505,28
45.5691,32
45.5877,29
45.6063,24
45.6248,28
45.6434,20
45.6620,16
45.6806,31
45.6991,20
45.7177,22
45.7363,24
45.7549,22
45.7734,18
45.7920,33
45.8106,28
45.8292,26
45.8477,17
45.8663,18
45.8849,38
45.9035,19
45.9220,25
45.9406,34
45.9592,26
45.9778,27
45.9963,22
46.0149,28
46.0335,16
46.0521,18
46.0707,28
46.0892,20
46.1078,13
46.1264,21
46.1450,31
46.1635,26
46.1821,19
46.2007,17
46.2193,12
46.2378,17
46.2564,27
46.2750,29
46.2936,25
46.3121,26
46.3307,29
46.3493,25
46.3679,29
46.3864,22
46.4050,24
46.4236,33
46.4422,31
46.4607,22
46.4793,22
46.4979,23
46.5165,27
46.5350,30
46.5536,23
46.5722,22
46.5908,28
46.6093,22
46.6279,27
46.6465,27
46.6651,21
46.6836,21
46.7022,25
46.7208,20
46.7394,22
46.7579,23
46.7765,30
46.7951,34
46.8137,29
46.8323,19
46.8508,18
46.8694,25
46.8880,23
46.9066,34
46.9251,28
46.9437,25
46.9623,41
46.9809,32
46.9994,25
47.0180,20
47.0366,15
47.0552,18
47.0737,19
47.0923,27
47.1109,12
47.1295,24
47.1480,19
47.1666,19
47.1852,14
47.2038,33
47.2223,19
47.2409,16
47.2595,24
47.2781,21
47.2966,21
47.3152,27
47.3338,22
47.3524,31
47.3709,22
47.3895,20
47.4081,18
47.4267,26
47.4452,34
47.4638,24
47.4824,20
47.5010,27
47.5195,15
47.5381,27
47.5567,19
47.5753,26
47.5939,20
47.6124,27
47.6310,22
47.6496,20
47.6682,27
47.6867,27
47.7053,23
47.7239,36
47.7425,22
47.7610,18
47.7796,21
47.7982,26
47.8168,19
47.8353,20
47.8539,17
47.8725,22
47.8911,22
47.9096,22
47.9282,24
47.9468,20
47.9654,18
47.9839,29
48.0025,20
48.0211,18
48.0397,32
48.0582,30
48.0768,17
48.0954,17
48.1140,25
48.1325,23
48.1511,22
48.1697,27
48.1883,17
48.2068,20
48.2254,24
48.2440,23
48.2626,27
48.2811,22
48.2997,25
48.3183,16
48.3369,24
48.3555,21
48.3740,19
48.3926,21
48.4112,28
48.4298,19
48.4483,26
48.4669,29
48.4855,19
48.5041,21
48.5226,20
48.5412,29
48.5598,18
48.5784,34
48.5969,24
48.6155,18
48.6341,23
48.6527,31
48.6712,16
48.6898,28
48.7084,28
48.7270,25
48.7455,16
48.7641,29
48.7827,31
48.8013,20
48.8198,16
48.8384,23
48.8570,22
48.8756,21
48.8941,24
48.9127,28
48.9313,30
48.9499,46
48.9684,40
48.9870,30
49.0056,29
49.0242,23
49.0427,28
49.0613,24
49.0799,41
49.0985,39
49.1171,31
49.1356,28
49.1542,29
49.1728,23
49.1914,28
49.2099,30
49.2285,25
49.2471,25
49.2657,23
49.2842,26
49.3028,22
49.3214,25
49.3400,18
49.3585,32
49.3771,24
49.3957,31
49.4143,22
49.4328,31
49.4514,23
49.4700,24
49.4886,25
49.5071,22
49.5257,22
49.5443,24
49.5629,22
49.5814,26
49.6000,21
49.6186,22
49.6372,21
49.6557,26
49.6743,19
49.6929,19
49.7115,27
49.7300,36
49.7486,25
49.7672,26
49.7858,24
49.8043,20
49.8229,20
49.8415,26
49.8601,26
49.8786,17
49.8972,23
49.9158,20
49.9344,23
49.9530,17
49.9715,19
49.9901,24
50.0087,16
50.0273,21
50.0458,22
50.0644,25
50.0830,27
50.1016,28
50.1201,21
50.1387,19
50.1573,22
50.1759,28
50.1944,22
50.2130,26
50.2316,27
50.2502,21
50.2687,23
50.2873,24
50.3059,22
50.3245,20
50.3430,19
50.3616,27
50.3802,30
50.3988,18
50.4173,20
50.4359,19
50.4545,30
50.4731,21
50.4916,25
50.5102,14
50.5288,19
50.5474,23
50.5659,13
50.5845,23
50.6031,24
50.6217,25
50.6402,31
50.6588,17
50.6774,18
50.6960,22
50.7146,25
50.7331,15
50.7517,17
50.7703,22
50.7889,24
50.8074,24
50.8260,20
50.8446,30
50.8632,34
50.8817,26
50.9003,22
50.9189,29
50.9375,24
50.9560,24
50.9746,21
50.9932,27
51.0118,15
51.0303,25
51.0489,20
51.0675,21
51.0861,20
51.1046,19
51.1232,23
51.1418,14
51.1604,20
51.1789,15
51.1975,23
51.2161,23
51.2347,20
51.2532,18
51.2718,26
51.2904,20
51.3090,25
51.3275,18
51.3461,17
51.3647,25
51.3833,23
51.4018,23
51.4204,33
51.4390,30
51.4576,19
51.4762,24
51.4947,17
51.5133,27
51.5319,19
51.5505,19
51.5690,16
51.5876,22
51.6062,30
51.6248,21
51.6433,27
51.6619,26
51.6805,26
51.6991,32
51.7176,19
51.7362,26
51.7548,26
51.7734,22
51.7919,26
51.8105,31
51.8291,30
51.8477,23
51.8662,14
51.8848,19
51.9034,14
51.9220,25
51.9405,28
51.9591,22
51.9777,20
51.9963,27
52.0148,24
52.0334,25
52.0520,25
52.0706,20
52.0891,25
52.1077,25
52.1263,28
52.1449,18
52.1634,22
52.1820,16
52.2006,23
52.2192,17
52.2378,16
52.2563,26
52.2749,20
52.2935,19
52.3121,23
52.3306,16
52.3492,16
52.3678,13
52.3864,26
52.4049,18
52.4235,20
52.4421,22
52.4607,30
52.4792,31
52.4978,21
52.5164,22
52.5350,11
52.5535,27
52.5721,18
52.5907,21
52.6093,23
52.6278,15
52.6464,24
52.6650,22
52.6836,28
52.7021,23
52.7207,28
52.7393,26
52.7579,11
52.7764,24
52.7950,23
52.8136,28
52.8322,30
52.8507,20
52.8693,27
52.8879,27
52.9065,21
52.9250,23
52.9436,26
52.9622,18
52.9808,23
52.9994,20
53.0179,18
53.0365,19
53.0551,17
53.0737,21
53.0922,21
53.1108,20
53.1294,21
53.1480,20
53.1665,18
53.1851,19
53.2037,26
53.2223,17
53.2408,29
53.2594,18
53.2780,25
53.2966,12
53.3151,20
53.3337,26
53.3523,18
53.3709,21
53.3894,20
53.4080,24
53.4266,15
53.4452,11
53.4637,29
53.4823,26
53.5009,25
53.5195,14
53.5380,18
53.5566,19
53.5752,15
53.5938,33
53.6123,21
53.6309,19
53.6495,16
53.6681,24
53.6866,14
53.7052,19
53.7238,17
53.7424,27
53.7610,22
53.7795,31
53.7981,22
53.8167,15
53.8353,23
53.8538,21
53.8724,17
53.8910,16
53.9096,26
53.9281,25
53.9467,29
53.9653,28
53.9839,34
54.0024,32
54.0210,30
54.0396,8
54.0582,22
54.0767,22
54.0953,17
54.1139,15
54.1325,23
54.1510,35
54.1696,23
54.1882,18
54.2068,28
54.2253,22
54.2439,12
54.2625,19
54.2811,21
54.2996,23
54.3182,24
54.3368,29
54.3554,24
54.3739,20
54.3925,28
54.4111,13
54.4297,21
54.4482,28
54.4668,17
54.4854,18
54.5040,31
54.5225,17
54.5411,19
54.5597,25
54.5783,12
54.5969,16
54.6154,13
54.6340,25
54.6526,14
54.6712,21
54.6897,18
54.7083,26
54.7269,19
54.7455,22
54.7640,18
54.7826,20
54.8012,22
54.8198,26
54.8383,21
54.8569,25
54.8755,29
54.8941,20
54.9126,22
54.9312,13
54.9498,21
54.9684,24
54.9869,20
55.0055,31
55.0241,21
55.0427,17
55.0612,21
55.0798,11
55.0984,23
55.1170,26
55.1355,11
55.1541,21
55.1727,19
55.1913,19
55.2098,18
55.2284,24
55.2470,16
55.2656,16
55.2841,21
55.3027,22
55.3213,22
55.3399,26
55.3585,16
55.3770,17
55.3956,19
55.4142,25
55.4328,18
55.4513,23
55.4699,23
55.4885,24
55.5071,24
55.5256,17
55.5442,22
55.5628,18
55.5814,28
55.5999,13
55.6185,25
55.6371,28
55.6557,14
55.6742,14
55.6928,18
55.7114,13
55.7300,20
55.7485,16
55.7671,17
55.7857,14
55.8043,21
55.8228,22
55.8414,21
55.8600,19
55.8786,13
55.8971,18
55.9157,22
55.9343,28
55.9529,28
55.9714,27
55.9900,31
56.0086,20
56.0272,29
56.0457,22
56.0643,23
56.0829,27
56.1015,23
56.1201,16
56.1386,17
56.1572,21
56.1758,18
56.1944,22
56.2129,21
56.2315,21
56.2501,17
56.2687,17
56.2872,17
56.3058,24
56.3244,26
56.3430,28
56.3615,26
56.3801,29
56.3987,28
56.4173,19
56.4358,21
56.4544,21
56.4730,26
56.4916,17
56.5101,20
56.5287,18
56.5473,16
56.5659,23
56.5844,19
56.6030,21
56.6216,23
56.6402,21
56.6587,19
56.6773,23
56.6959,8
56.7145,23
56.7330,22
56.7516,28
56.7702,17
56.7888,22
56.8073,25
56.8259,14
56.8445,23
56.8631,19
56.8817,17
56.9002,22
56.9188,17
56.9374,18
56.9560,16
56.9745,20
56.9931,28
57.0117,21
57.0303,18
57.0488,15
57.0674,21
57.0860,17
57.1046,18
57.1231,19
57.1417,23
57.1603,22
57.1789,10
57.1974,21
57.2160,19
57.2346,14
57.2532,22
57.2717,24
57.2903,21
57.3089,27
57.3275,20
57.3460,20
57.3646,17
57.3832,14
57.4018,22
57.4203,13
57.4389,20
57.4575,18
57.4761,23
57.4946,25
57.5132,22
57.5318,21
57.5504,19
57.5689,24
57.5875,22
57.6061,12
57.6247,18
57.6433,26
57.6618,32
57.6804,19
57.6990,23
57.7176,24
57.7361,25
57.7547,24
57.7733,14
57.7919,14
57.8104,11
57.8290,11
57.8476,22
57.8662,15
57.8847,22
57.9033,14
57.9219,14
57.9405,18
57.9590,16
57.9776,17
57.9962,22
58.0148,12
58.0333,19
58.0519,25
58.0705,21
58.0891,23
58.1076,21
58.1262,14
58.1448,9
58.1634,24
58.1819,19
58.2005,22
58.2191,26
58.2377,27
58.2562,17
58.2748,22
58.2934,15
58.3120,31
58.3305,21
58.3491,25
58.3677,27
58.3863,20
58.4049,16
58.4234,20
58.4420,9
58.4606,24
58.4792,19
58.4977,21
58.5163,20
58.5349,30
58.5535,17
58.5720,16
58.5906,17
58.6092,24
58.6278,24
58.6463,13
58.6649,17
58.6835,19
58.7021,20
58.7206,33
58.7392,15
58.7578,22
58.7764,21
58.7949,23
58.8135,22
58.8321,21
58.8507,17
58.8692,21
58.8878,17
58.9064,17
58.9250,20
58.9435,13
58.9621,16
58.9807,18
58.9993,20
59.0178,19
59.0364,17
59.0550,9
59.0736,14
59.0921,18
59.1107,12
59.1293,25
59.1479,19
59.1664,21
59.1850,17
59.2036,19
59.2222,24
59.2408,21
59.2593,21
59.2779,27
59.2965,17
59.3151,16
59.3336,10
59.3522,11
59.3708,13
59.3894,15
59.4079,13
59.4265,10
59.4451,24
59.4637,24
59.4822,21
59.5008,18
59.5194,20
59.5380,19
59.5565,17
59.5751,22
59.5937,21
59.6123,28
59.6308,22
59.6494,27
59.6680,14
59.6866,19
59.7051,20
59.7237,13
59.7423,22
59.7609,15
59.7794,22
59.7980,21
59.8166,24
59.8352,23
59.8537,17
59.8723,16
59.8909,29
59.9095,28
59.9280,23
59.9466,27
59.9652,17
59.9838,23
60.0024,19
