;,2THETA,
5.0000,88
5.0186,84
5.0372,89
5.0557,94
5.0743,99
5.0929,98
5.1115,88
5.1300,116
5.1486,80
5.1672,105
5.1858,99
5.2043,92
5.2229,86
5.2415,90
5.2601,82
5.2786,99
5.2972,97
5.3158,83
5.3344,91
5.3529,103
5.3715,89
5.3901,86
5.4087,86
5.4272,82
5.4458,85
5.4644,97
5.4830,76
5.5015,81
5.5201,87
5.5387,90
5.5573,91
5.5758,63
5.5944,84
5.6130,78
5.6316,86
5.6501,66
5.6687,73
5.6873,74
5.7059,69
5.7244,68
5.7430,72
5.7616,86
5.7802,77
5.7988,90
5.8173,76
5.8359,95
5.8545,71
5.8731,82
5.8916,70
5.9102,72
5.9288,81
5.9474,67
5.9659,70
5.9845,78
6.0031,74
6.0217,70
6.0402,68
6.0588,81
6.0774,65
6.0960,74
6.1145,77
6.1331,77
6.1517,64
6.1703,77
6.1888,69
6.2074,63
6.2260,63
6.2446,71
6.2631,68
6.2817,67
6.3003,77
6.3189,79
6.3374,89
6.3560,59
6.3746,63
6.3932,65
6.4117,66
6.4303,63
6.4489,70
6.4675,75
6.4860,53
6.5046,64
6.5232,56
6.5418,60
6.5604,63
6.5789,61
6.5975,66
6.6161,65
6.6347,72
6.6532,61
6.6718,60
6.6904,62
6.7090,73
6.7275,55
6.7461,67
6.7647,53
6.7833,58
6.8018,54
6.8204,73
6.8390,65
6.8576,71
6.8761,62
6.8947,62
6.9133,54
6.9319,54
6.9504,56
6.9690,59
6.9876,67
7.0062,57
7.0247,64
7.0433,56
7.0619,63
7.0805,65
7.0990,65
7.1176,42
7.1362,62
7.1548,53
7.1733,60
7.1919,63
7.2105,65
7.2291,56
7.2476,63
7.2662,44
7.2848,45
7.3034,60
7.3220,56
7.3405,48
7.3591,56
7.3777,65
7.3963,62
7.4148,51
7.4334,64
7.4520,54
7.4706,63
7.4891,55
7.5077,56
7.5263,60
7.5449,56
7.5634,51
7.5820,51
7.6006,65
7.6192,60
7.6377,53
7.6563,64
7.6749,66
7.6935,78
7.7120,71
7.7306,60
7.7492,61
7.7678,56
7.7863,63
7.8049,72
7.8235,69
7.8421,57
7.8606,70
7.8792,65
7.8978,65
7.9164,68
7.9349,72
7.9535,67
7.9721,69
7.9907,67
8.0092,76
8.0278,76
8.0464,71
8.0650,72
8.0835,72
8.1021,85
8.1207,57
8.1393,76
8.1579,52
8.1764,64
8.1950,68
8.2136,69
8.2322,60
8.2507,72
8.2693,62
8.2879,72
8.3065,66
8.3250,71
8.3436,70
8.3622,84
8.3808,65
8.3993,63
8.4179,73
8.4365,75
8.4551,75
8.4736,75
8.4922,90
8.5108,74
8.5294,74
8.5479,78
8.5665,86
8.5851,87
8.6037,70
8.6222,67
8.6408,71
8.6594,72
8.6780,78
8.6965,73
8.7151,62
8.7337,81
8.7523,58
8.7708,74
8.7894,78
8.8080,74
8.8266,79
8.8451,88
8.8637,85
8.8823,75
8.9009,79
8.9195,75
8.9380,98
8.9566,79
8.9752,76
8.9938,79
9.0123,86
9.0309,85
9.0495,79
9.0681,94
9.0866,61
9.1052,100
9.1238,82
9.1424,76
9.1609,67
9.1795,61
9.1981,82
9.2167,80
9.2352,80
9.2538,87
9.2724,83
9.2910,79
9.3095,94
9.3281,97
9.3467,73
9.3653,67
9.3838,89
9.4024,77
9.4210,75
9.4396,94
9.4581,87
9.4767,70
9.4953,71
9.5139,77
9.5324,75
9.5510,75
9.5696,84
9.5882,88
9.6067,73
9.6253,95
9.6439,83
9.6625,85
9.6811,84
9.6996,73
9.7182,59
9.7368,64
9.7554,75
9.7739,90
9.7925,68
9.8111,69
9.8297,91
9.8482,80
9.8668,79
9.8854,91
9.9040,109
9.9225,100
9.9411,92
9.9597,91
9.9783,81
9.9968,80
10.0154,84
10.0340,85
10.0526,115
10.0711,84
10.0897,82
10.1083,82
10.1269,104
10.1454,92
10.1640,96
10.1826,85
10.2012,87
10.2197,80
10.2383,103
10.2569,94
10.2755,97
10.2940,107
10.3126,92
10.3312,103
10.3498,73
10.3683,75
10.3869,78
10.4055,77
10.4241,86
10.4427,94
10.4612,83
10.4798,73
10.4984,87
10.5170,83
10.5355,90
10.5541,89
10.5727,103
10.5913,90
10.6098,80
10.6284,95
10.6470,93
10.6656,107
10.6841,98
10.7027,91
10.7213,88
10.7399,82
10.7584,88
10.7770,77
10.7956,81
10.8142,85
10.8327,77
10.8513,85
10.8699,92
10.8885,73
10.9070,111
10.9256,95
10.9442,86
10.9628,80
10.9813,85
10.9999,84
11.0185,96
11.0371,101
11.0556,82
11.0742,88
11.0928,90
11.1114,92
11.1299,86
11.1485,96
11.1671,94
11.1857,98
11.2043,69
11.2228,80
11.2414,86
11.2600,86
11.2786,92
11.2971,86
11.3157,87
11.3343,102
11.3529,93
11.3714,95
11.3900,82
11.4086,101
11.4272,104
11.4457,88
11.4643,99
11.4829,99
11.5015,83
11.5200,83
11.5386,103
11.5572,87
11.5758,74
11.5943,70
11.6129,98
11.6315,98
11.6501,84
11.6686,81
11.6872,88
11.7058,97
11.7244,78
11.7429,86
11.7615,90
11.7801,90
11.7987,74
11.8172,92
11.8358,92
11.8544,96
11.8730,86
11.8915,95
11.9101,77
11.9287,87
11.9473,82
11.9659,81
11.9844,82
12.0030,75
12.0216,90
12.0402,86
12.0587,86
12.0773,91
12.0959,84
12.1145,76
12.1330,91
12.1516,83
12.1702,71
12.1888,93
12.2073,83
12.2259,105
12.2445,93
12.2631,105
12.2816,88
12.3002,67
12.3188,76
12.3374,86
12.3559,75
12.3745,88
12.3931,73
12.4117,85
12.4302,99
12.4488,86
12.4674,74
12.4860,74
12.5045,76
12.5231,82
12.5417,83
12.5603,73
12.5788,83
12.5974,77
12.6160,71
12.6346,73
12.6531,73
12.6717,88
12.6903,76
12.7089,65
12.7274,83
12.7460,80
12.7646,86
12.7832,73
12.8018,90
12.8203,73
12.8389,81
12.8575,86
12.8761,90
12.8946,78
12.9132,92
12.9318,85
12.9504,80
12.9689,81
12.9875,74
13.0061,77
13.0247,61
13.0432,80
13.0618,77
13.0804,85
13.0990,73
13.1175,60
13.1361,77
13.1547,75
13.1733,72
13.1918,84
13.2104,65
13.2290,90
13.2476,70
13.2661,88
13.2847,72
13.3033,75
13.3219,75
13.3404,75
13.3590,81
13.3776,73
13.3962,83
13.4147,84
13.4333,63
13.4519,71
13.4705,59
13.4890,68
13.5076,65
13.5262,65
13.5448,63
13.5634,76
13.5819,70
13.6005,54
13.6191,61
13.6377,56
13.6562,59
13.6748,62
13.6934,83
13.7120,64
13.7305,80
13.7491,68
13.7677,82
13.7863,69
13.8048,58
13.8234,72
13.8420,74
13.8606,57
13.8791,64
13.8977,61
13.9163,74
13.9349,67
13.9534,64
13.9720,68
13.9906,65
14.0092,81
14.0277,68
14.0463,65
14.0649,78
14.0835,71
14.1020,65
14.1206,70
14.1392,68
14.1578,72
14.1763,70
14.1949,55
14.2135,67
14.2321,58
14.2506,66
14.2692,60
14.2878,71
14.3064,73
14.3250,65
14.3435,60
14.3621,66
14.3807,52
14.3993,55
14.4178,59
14.4364,70
14.4550,61
14.4736,75
14.4921,55
14.5107,62
14.5293,68
14.5479,66
14.5664,72
14.5850,59
14.6036,70
14.6222,63
14.6407,63
14.6593,61
14.6779,64
14.6965,63
14.7150,64
14.7336,61
14.7522,67
14.7708,58
14.7893,54
14.8079,58
14.8265,58
14.8451,60
14.8636,52
14.8822,66
14.9008,53
14.9194,56
14.9379,58
14.9565,60
14.9751,58
14.9937,67
15.0122,68
15.0308,63
15.0494,58
15.0680,59
15.0866,68
15.1051,56
15.1237,56
15.1423,45
15.1609,55
15.1794,61
15.1980,75
15.2166,72
15.2352,58
15.2537,59
15.2723,60
15.2909,50
15.3095,75
15.3280,70
15.3466,45
15.3652,56
15.3838,57
15.4023,66
15.4209,50
15.4395,61
15.4581,66
15.4766,48
15.4952,60
15.5138,50
15.5324,47
15.5509,45
15.5695,64
15.5881,62
15.6067,63
15.6252,57
15.6438,59
15.6624,63
15.6810,50
15.6995,42
15.7181,72
15.7367,60
15.7553,58
15.7738,58
15.7924,62
15.8110,77
15.8296,65
15.8482,70
15.8667,60
15.8853,61
15.9039,56
15.9225,58
15.9410,66
15.9596,65
15.9782,55
15.9968,63
16.0153,63
16.0339,62
16.0525,44
16.0711,61
16.0896,59
16.1082,61
16.1268,46
16.1454,76
16.1639,57
16.1825,50
16.2011,48
16.2197,70
16.2382,55
16.2568,55
16.2754,54
16.2940,61
16.3125,64
16.3311,57
16.3497,65
16.3683,65
16.3868,55
16.4054,58
16.4240,48
16.4426,58
16.4611,59
16.4797,66
16.4983,59
16.5169,57
16.5354,74
16.5540,70
16.5726,66
16.5912,52
16.6097,68
16.6283,61
16.6469,66
16.6655,63
16.6841,60
16.7026,60
16.7212,58
16.7398,61
16.7584,50
16.7769,67
16.7955,52
16.8141,60
16.8327,69
16.8512,43
16.8698,45
16.8884,52
16.9070,52
16.9255,51
16.9441,58
16.9627,55
16.9813,58
16.9998,49
17.0184,61
17.0370,68
17.0556,63
17.0741,39
17.0927,66
17.1113,62
17.1299,49
17.1484,58
17.1670,63
17.1856,52
17.2042,66
17.2227,59
17.2413,60
17.2599,63
17.2785,44
17.2970,48
17.3156,51
17.3342,46
17.3528,51
17.3713,61
17.3899,54
17.4085,72
17.4271,60
17.4457,58
17.4642,59
17.4828,49
17.5014,55
17.5200,52
17.5385,48
17.5571,61
17.5757,46
17.5943,58
17.6128,62
17.6314,53
17.6500,48
17.6686,50
17.6871,56
17.7057,55
17.7243,54
17.7429,72
17.7614,45
17.7800,53
17.7986,59
17.8172,54
17.8357,52
17.8543,59
17.8729,51
17.8915,68
17.9100,49
17.9286,73
17.9472,63
17.9658,59
17.9843,58
18.0029,76
18.0215,66
18.0401,64
18.0586,59
18.0772,50
18.0958,56
18.1144,57
18.1329,59
18.1515,58
18.1701,73
18.1887,75
18.2073,50
18.2258,48
18.2444,64
18.2630,64
18.2816,65
18.3001,58
18.3187,52
18.3373,51
18.3559,58
18.3744,70
18.3930,63
18.4116,60
18.4302,58
18.4487,62
18.4673,50
18.4859,54
18.5045,76
18.5230,65
18.5416,66
18.5602,65
18.5788,59
18.5973,74
18.6159,67
18.6345,58
18.6531,63
18.6716,66
18.6902,72
18.7088,55
18.7274,71
18.7459,60
18.7645,56
18.7831,59
18.8017,49
18.8202,54
18.8388,65
18.8574,52
18.8760,63
18.8945,54
18.9131,68
18.9317,73
18.9503,63
18.9689,77
18.9874,66
19.0060,64
19.0246,62
19.0432,64
19.0617,61
19.0803,71
19.0989,56
19.1175,59
19.1360,55
19.1546,65
19.1732,68
19.1918,67
19.2103,72
19.2289,63
19.2475,63
19.2661,59
19.2846,73
19.3032,69
19.3218,73
19.3404,59
19.3589,61
19.3775,69
19.3961,59
19.4147,56
19.4332,45
19.4518,60
19.4704,67
19.4890,70
19.5075,76
19.5261,66
19.5447,58
19.5633,59
19.5818,56
19.6004,57
19.6190,58
19.6376,51
19.6561,52
19.6747,69
19.6933,71
19.7119,63
19.7305,58
19.7490,71
19.7676,75
19.7862,72
19.8048,64
19.8233,60
19.8419,67
19.8605,65
19.8791,77
19.8976,60
19.9162,61
19.9348,60
19.9534,68
19.9719,59
19.9905,92
20.0091,65
20.0277,59
20.0462,73
20.0648,84
20.0834,63
20.1020,60
20.1205,58
20.1391,63
20.1577,62
20.1763,65
20.1948,55
20.2134,80
20.2320,84
20.2506,75
20.2691,70
20.2877,65
20.3063,56
20.3249,70
20.3434,51
20.3620,59
20.3806,66
20.3992,62
20.4177,52
20.4363,61
20.4549,55
20.4735,78
20.4921,52
20.5106,66
20.5292,80
20.5478,59
20.5664,67
20.5849,72
20.6035,63
20.6221,77
20.6407,70
20.6592,66
20.6778,83
20.6964,74
20.7150,56
20.7335,89
20.7521,83
20.7707,86
20.7893,58
20.8078,56
20.8264,79
20.8450,70
20.8636,67
20.8821,69
20.9007,72
20.9193,80
20.9379,55
20.9564,67
20.9750,82
20.9936,69
21.0122,81
21.0307,69
21.0493,66
21.0679,78
21.0865,72
21.1050,64
21.1236,92
21.1422,103
21.1608,94
21.1793,102
21.1979,110
21.2165,110
21.2351,108
21.2537,116
21.2722,104
21.2908,134
21.3094,120
21.3280,147
21.3465,172
21.3651,205
21.3837,155
21.4023,132
21.4208,119
21.4394,99
21.4580,92
21.4766,85
21.4951,94
21.5137,74
21.5323,70
21.5509,76
21.5694,62
21.5880,57
21.6066,67
21.6252,84
21.6437,81
21.6623,82
21.6809,66
21.6995,72
21.7180,79
21.7366,66
21.7552,70
21.7738,68
21.7923,76
21.8109,66
21.8295,70
21.8481,52
21.8666,73
21.8852,80
21.9038,79
21.9224,72
21.9409,69
21.9595,68
21.9781,59
21.9967,76
22.0152,80
22.0338,83
22.0524,90
22.0710,77
22.0896,74
22.1081,81
22.1267,77
22.1453,76
22.1639,48
22.1824,59
22.2010,69
22.2196,75
22.2382,62
22.2567,63
22.2753,85
22.2939,78
22.3125,69
22.3310,73
22.3496,83
22.3682,70
22.3868,77
22.4053,67
22.4239,81
22.4425,79
22.4611,69
22.4796,89
22.4982,72
22.5168,74
22.5354,84
22.5539,79
22.5725,63
22.5911,62
22.6097,62
22.6282,77
22.6468,74
22.6654,63
22.6840,71
22.7025,61
22.7211,69
22.7397,63
22.7583,80
22.7768,67
22.7954,62
22.8140,63
22.8326,85
22.8512,64
22.8697,74
22.8883,71
22.9069,67
22.9255,87
22.9440,71
22.9626,69
22.9812,72
22.9998,74
23.0183,70
23.0369,80
23.0555,79
23.0741,70
23.0926,82
23.1112,67
23.1298,54
23.1484,57
23.1669,72
23.1855,94
23.2041,79
23.2227,72
23.2412,75
23.2598,89
23.2784,71
23.2970,60
23.3155,73
23.3341,74
23.3527,75
23.3713,74
23.3898,83
23.4084,72
23.4270,70
23.4456,78
23.4641,72
23.4827,65
23.5013,68
23.5199,82
23.5384,87
23.5570,77
23.5756,84
23.5942,65
23.6128,53
23.6313,68
23.6499,74
23.6685,73
23.6871,75
23.7056,83
23.7242,75
23.7428,63
23.7614,87
23.7799,87
23.7985,73
23.8171,79
23.8357,86
23.8542,63
23.8728,75
23.8914,84
23.9100,73
23.9285,81
23.9471,71
23.9657,83
23.9843,71
24.0028,71
24.0214,78
24.0400,84
24.0586,73
24.0771,78
24.0957,60
24.1143,75
24.1329,76
24.1514,79
24.1700,84
24.1886,80
24.2072,102
24.2257,73
24.2443,75
24.2629,80
24.2815,64
24.3000,88
24.3186,88
24.3372,70
24.3558,81
24.3744,104
24.3929,86
24.4115,86
24.4301,95
24.4487,80
24.4672,70
24.4858,86
24.5044,84
24.5230,75
24.5415,77
24.5601,74
24.5787,70
24.5973,72
24.6158,72
24.6344,68
24.6530,66
24.6716,86
24.6901,67
24.7087,70
24.7273,75
24.7459,59
24.7644,64
24.7830,86
24.8016,78
24.8202,77
24.8387,66
24.8573,69
24.8759,57
24.8945,81
24.9130,72
24.9316,71
24.9502,79
24.9688,74
24.9873,77
25.0059,66
25.0245,73
25.0431,68
25.0616,68
25.0802,81
25.0988,61
25.1174,70
25.1360,60
25.1545,66
25.1731,67
25.1917,73
25.2103,81
25.2288,86
25.2474,75
25.2660,65
25.2846,73
25.3031,78
25.3217,66
25.3403,85
25.3589,76
25.3774,60
25.3960,79
25.4146,78
25.4332,89
25.4517,78
25.4703,69
25.4889,69
25.5075,67
25.5260,65
25.5446,75
25.5632,76
25.5818,72
25.6003,69
25.6189,61
25.6375,64
25.6561,64
25.6746,75
25.6932,75
25.7118,70
25.7304,73
25.7489,75
25.7675,84
25.7861,60
25.8047,52
25.8232,70
25.8418,50
25.8604,62
25.8790,75
25.8976,71
25.9161,62
25.9347,62
25.9533,64
25.9719,67
25.9904,67
26.0090,64
26.0276,71
26.0462,68
26.0647,78
26.0833,61
26.1019,68
26.1205,76
26.1390,72
26.1576,69
26.1762,71
26.1948,67
26.2133,79
26.2319,66
26.2505,63
26.2691,64
26.2876,74
26.3062,75
26.3248,66
26.3434,76
26.3619,71
26.3805,72
26.3991,70
26.4177,66
26.4362,63
26.4548,70
26.4734,64
26.4920,69
26.5105,72
26.5291,73
26.5477,78
26.5663,70
26.5848,60
26.6034,59
26.6220,58
26.6406,74
26.6591,79
26.6777,75
26.6963,79
26.7149,70
26.7335,67
26.7520,74
26.7706,69
26.7892,59
26.8078,82
26.8263,75
26.8449,63
26.8635,68
26.8821,79
26.9006,64
26.9192,60
26.9378,52
26.9564,61
26.9749,70
26.9935,76
27.0121,61
27.0307,64
27.0492,81
27.0678,71
27.0864,50
27.1050,68
27.1235,64
27.1421,72
27.1607,88
27.1793,80
27.1978,75
27.2164,87
27.2350,84
27.2536,84
27.2721,73
27.2907,79
27.3093,78
27.3279,58
27.3464,54
27.3650,66
27.3836,60
27.4022,67
27.4207,75
27.4393,65
27.4579,55
27.4765,60
27.4951,70
27.5136,66
27.5322,64
27.5508,78
27.5694,75
27.5879,60
27.6065,53
27.6251,68
27.6437,57
27.6622,63
27.6808,63
27.6994,67
27.7180,68
27.7365,55
27.7551,65
27.7737,51
27.7923,62
27.8108,60
27.8294,79
27.8480,64
27.8666,75
27.8851,65
27.9037,56
27.9223,54
27.9409,62
27.9594,67
27.9780,68
27.9966,61
28.0152,61
28.0337,58
28.0523,64
28.0709,57
28.0895,63
28.1080,71
28.1266,62
28.1452,52
28.1638,69
28.1823,65
28.2009,74
28.2195,60
28.2381,56
28.2567,70
28.2752,67
28.2938,71
28.3124,56
28.3310,65
28.3495,60
28.3681,71
28.3867,67
28.4053,71
28.4238,74
28.4424,65
28.4610,71
28.4796,68
28.4981,55
28.5167,61
28.5353,50
28.5539,67
28.5724,57
28.5910,62
28.6096,69
28.6282,55
28.6467,80
28.6653,57
28.6839,69
28.7025,69
28.7210,47
28.7396,58
28.7582,64
28.7768,55
28.7953,49
28.8139,61
28.8325,44
28.8511,55
28.8696,61
28.8882,53
28.9068,50
28.9254,48
28.9439,62
28.9625,60
28.9811,52
28.9997,51
29.0183,63
29.0368,65
29.0554,54
29.0740,61
29.0926,52
29.1111,55
29.1297,60
29.1483,60
29.1669,57
29.1854,61
29.2040,57
29.2226,54
29.2412,62
29.2597,62
29.2783,56
29.2969,59
29.3155,49
29.3340,48
29.3526,68
29.3712,51
29.3898,59
29.4083,45
29.4269,65
29.4455,77
29.4641,62
29.4826,54
29.5012,64
29.5198,56
29.5384,67
29.5569,50
29.5755,64
29.5941,61
29.6127,55
29.6312,61
29.6498,59
29.6684,64
29.6870,55
29.7055,72
29.7241,50
29.7427,56
29.7613,50
29.7799,51
29.7984,63
29.8170,53
29.8356,54
29.8542,58
29.8727,64
29.8913,44
29.9099,72
29.9285,64
29.9470,58
29.9656,58
29.9842,55
30.0028,58
30.0213,85
30.0399,61
30.0585,66
30.0771,62
30.0956,45
30.1142,56
30.1328,52
30.1514,47
30.1699,57
30.1885,56
30.2071,51
30.2257,52
30.2442,55
30.2628,54
30.2814,60
30.3000,61
30.3185,87
30.3371,79
30.3557,87
30.3743,109
30.3928,108
30.4114,100
30.4300,83
30.4486,89
30.4671,98
30.4857,72
30.5043,63
30.5229,73
30.5415,66
30.5600,54
30.5786,55
30.5972,57
30.6158,58
30.6343,54
30.6529,51
30.6715,50
30.6901,44
30.7086,52
30.7272,57
30.7458,57
30.7644,63
30.7829,49
30.8015,39
30.8201,44
30.8387,52
30.8572,59
30.8758,57
30.8944,56
30.9130,54
30.9315,53
30.9501,75
30.9687,53
30.9873,59
31.0058,56
31.0244,42
31.0430,47
31.0616,44
31.0801,38
31.0987,52
31.1173,59
31.1359,49
31.1544,55
31.1730,60
31.1916,54
31.2102,52
31.2287,52
31.2473,46
31.2659,45
31.2845,50
31.3030,50
31.3216,78
31.3402,63
31.3588,58
31.3774,54
31.3959,50
31.4145,43
31.4331,48
31.4517,45
31.4702,46
31.4888,44
31.5074,57
31.5260,54
31.5445,51
31.5631,34
31.5817,51
31.6003,63
31.6188,48
31.6374,67
31.6560,59
31.6746,42
31.6931,65
31.7117,58
31.7303,45
31.7489,62
31.7674,34
31.7860,48
31.8046,39
31.8232,42
31.8417,44
31.8603,41
31.8789,50
31.8975,37
31.9160,44
31.9346,56
31.9532,44
31.9718,60
31.9903,49
32.0089,49
32.0275,53
32.0461,28
32.0646,57
32.0832,51
32.1018,47
32.1204,43
32.1390,37
32.1575,43
32.1761,52
32.1947,46
32.2133,55
32.2318,52
32.2504,46
32.2690,42
32.2876,53
32.3061,51
32.3247,53
32.3433,61
32.3619,45
32.3804,50
32.3990,61
32.4176,57
32.4362,52
32.4547,64
32.4733,57
32.4919,52
32.5105,49
32.5290,51
32.5476,46
32.5662,48
32.5848,56
32.6033,56
32.6219,44
32.6405,39
32.6591,59
32.6776,59
32.6962,41
32.7148,49
32.7334,50
32.7519,46
32.7705,43
32.7891,47
32.8077,44
32.8262,43
32.8448,53
32.8634,35
32.8820,30
32.9006,56
32.9191,29
32.9377,48
32.9563,50
32.9749,47
32.9934,36
33.0120,44
33.0306,46
33.0492,46
33.0677,45
33.0863,42
33.1049,41
33.1235,48
33.1420,40
33.1606,47
33.1792,49
33.1978,29
33.2163,53
33.2349,38
33.2535,44
33.2721,41
33.2906,40
33.3092,40
33.3278,39
33.3464,52
33.3649,53
33.3835,40
33.4021,47
33.4207,28
33.4392,38
33.4578,44
33.4764,35
33.4950,35
33.5135,33
33.5321,39
33.5507,41
33.5693,39
33.5878,39
33.6064,46
33.6250,34
33.6436,39
33.6622,40
33.6807,44
33.6993,47
33.7179,38
33.7365,37
33.7550,40
33.7736,35
33.7922,38
33.8108,32
33.8293,39
33.8479,52
33.8665,49
33.8851,54
33.9036,50
33.9222,46
33.9408,42
33.9594,43
33.9779,47
33.9965,53
34.0151,52
34.0337,40
34.0522,62
34.0708,51
34.0894,34
34.1080,48
34.1265,40
34.1451,48
34.1637,48
34.1823,41
34.2008,36
34.2194,51
34.2380,29
34.2566,43
34.2751,48
34.2937,30
34.3123,43
34.3309,42
34.3494,47
34.3680,48
34.3866,49
34.4052,42
34.4238,36
34.4423,51
34.4609,49
34.4795,37
34.4981,46
34.5166,41
34.5352,45
34.5538,42
34.5724,48
34.5909,43
34.6095,61
34.6281,45
34.6467,46
34.6652,50
34.6838,42
34.7024,40
34.7210,46
34.7395,59
34.7581,50
34.7767,55
34.7953,48
34.8138,57
34.8324,50
34.8510,40
34.8696,55
34.8881,44
34.9067,52
34.9253,43
34.9439,42
34.9624,48
34.9810,48
34.9996,37
35.0182,41
35.0367,39
35.0553,39
35.0739,25
35.0925,42
35.1110,30
35.1296,45
35.1482,35
35.1668,42
35.1854,28
35.2039,41
35.2225,36
35.2411,43
35.2597,32
35.2782,41
35.2968,45
35.3154,37
35.3340,31
35.3525,34
35.3711,35
35.3897,33
35.4083,33
35.4268,43
35.4454,32
35.4640,34
35.4826,21
35.5011,41
35.5197,25
35.5383,36
35.5569,33
35.5754,30
35.5940,31
35.6126,30
35.6312,47
35.6497,39
35.6683,33
35.6869,39
35.7055,41
35.7240,33
35.7426,30
35.7612,34
35.7798,36
35.7983,36
35.8169,38
35.8355,42
35.8541,41
35.8726,40
35.8912,40
35.9098,36
35.9284,40
35.9469,30
35.9655,40
35.9841,42
36.0027,34
36.0213,36
36.0398,40
36.0584,45
36.0770,30
36.0956,28
36.1141,25
36.1327,37
36.1513,30
36.1699,47
36.1884,28
36.2070,47
36.2256,33
36.2442,32
36.2627,34
36.2813,26
36.2999,30
36.3185,31
36.3370,40
36.3556,28
36.3742,43
36.3928,35
36.4113,29
36.4299,31
36.4485,46
36.4671,24
36.4856,43
36.5042,43
36.5228,36
36.5414,39
36.5599,32
36.5785,36
36.5971,32
36.6157,33
36.6342,30
36.6528,31
36.6714,31
36.6900,28
36.7085,44
36.7271,42
36.7457,36
36.7643,38
36.7829,30
36.8014,38
36.8200,24
36.8386,36
36.8572,40
36.8757,48
36.8943,37
36.9129,31
36.9315,32
36.9500,40
36.9686,41
36.9872,34
37.0058,33
37.0243,31
37.0429,32
37.0615,30
37.0801,25
37.0986,30
37.1172,41
37.1358,22
37.1544,37
37.1729,35
37.1915,40
37.2101,37
37.2287,33
37.2472,28
37.2658,31
37.2844,32
37.3030,48
37.3215,45
37.3401,38
37.3587,35
37.3773,38
37.3958,45
37.4144,43
37.4330,61
37.4516,65
37.4701,48
37.4887,41
37.5073,51
37.5259,37
37.5445,52
37.5630,45
37.5816,40
37.6002,29
37.6188,33
37.6373,33
37.6559,36
37.6745,28
37.6931,32
37.7116,35
37.7302,38
37.7488,30
37.7674,38
37.7859,37
37.8045,29
37.8231,35
37.8417,34
37.8602,38
37.8788,20
37.8974,33
37.9160,19
37.9345,36
37.9531,36
37.9717,39
37.9903,37
38.0088,39
38.0274,23
38.0460,28
38.0646,36
38.0831,37
38.1017,26
38.1203,21
38.1389,31
38.1574,23
38.1760,35
38.1946,35
38.2132,41
38.2317,27
38.2503,27
38.2689,18
38.2875,38
38.3061,36
38.3246,37
38.3432,30
38.3618,24
38.3804,23
38.3989,32
38.4175,32
38.4361,38
38.4547,20
38.4732,35
38.4918,26
38.5104,32
38.5290,39
38.5475,34
38.5661,34
38.5847,21
38.6033,34
38.6218,31
38.6404,27
38.6590,20
38.6776,41
38.6961,39
38.7147,27
38.7333,41
38.7519,42
38.7704,22
38.7890,32
38.8076,29
38.8262,45
38.8447,31
38.8633,27
38.8819,27
38.9005,30
38.9190,29
38.9376,43
38.9562,31
38.9748,24
38.9933,20
39.0119,30
39.0305,23
39.0491,36
39.0677,36
39.0862,31
39.1048,35
39.1234,30
39.1420,27
39.1605,42
39.1791,35
39.1977,31
39.2163,21
39.2348,19
39.2534,27
39.2720,28
39.2906,27
39.3091,25
39.3277,31
39.3463,41
39.3649,30
39.3834,35
39.4020,24
39.4206,27
39.4392,28
39.4577,40
39.4763,19
39.4949,31
39.5135,30
39.5320,31
39.5506,32
39.5692,22
39.5878,33
39.6063,33
39.6249,26
39.6435,32
39.6621,36
39.6806,32
39.6992,28
39.7178,21
39.7364,32
39.7549,29
39.7735,21
39.7921,21
39.8107,24
39.8293,19
39.8478,22
39.8664,22
39.8850,21
39.9036,27
39.9221,35
39.9407,31
39.9593,27
39.9779,27
39.9964,28
40.0150,25
40.0336,37
40.0522,30
40.0707,28
40.0893,24
40.1079,21
40.1265,33
40.1450,27
40.1636,36
40.1822,43
40.2008,23
40.2193,32
40.2379,22
40.2565,32
40.2751,32
40.2936,29
40.3122,22
40.3308,28
40.3494,41
40.3679,27
40.3865,30
40.4051,34
40.4237,31
40.4422,35
40.4608,17
40.4794,32
40.4980,33
40.5165,29
40.5351,34
40.5537,26
40.5723,33
40.5908,28
40.6094,33
40.6280,28
40.6466,33
40.6652,28
40.6837,26
40.7023,27
40.7209,25
40.7395,20
40.7580,31
40.7766,25
40.7952,29
40.8138,24
40.8323,26
40.8509,38
40.8695,37
40.8881,32
40.9066,19
40.9252,23
40.9438,31
40.9624,24
40.9809,25
40.9995,28
41.0181,32
41.0367,28
41.0552,32
41.0738,36
41.0924,35
41.1110,24
41.1295,33
41.1481,34
41.1667,35
41.1853,36
41.2038,29
41.2224,27
41.2410,25
41.2596,23
41.2781,29
41.2967,37
41.3153,30
41.3339,40
41.3524,43
41.3710,31
41.3896,29
41.4082,30
41.4268,41
41.4453,24
41.4639,31
41.4825,24
41.5011,29
41.5196,29
41.5382,24
41.5568,24
41.5754,32
41.5939,33
41.6125,26
41.6311,20
41.6497,26
41.6682,19
41.6868,31
41.7054,26
41.7240,33
41.7425,26
41.7611,37
41.7797,30
41.7983,30
41.8168,31
41.8354,31
41.8540,27
41.8726,30
41.8911,25
41.9097,25
41.9283,29
41.9469,22
41.9654,31
41.9840,30
42.0026,25
42.0212,32
42.0397,26
42.0583,23
42.0769,17
42.0955,28
42.1140,34
42.1326,30
42.1512,26
42.1698,21
42.1884,28
42.2069,22
42.2255,24
42.2441,27
42.2627,25
42.2812,24
42.2998,38
42.3184,25
42.3370,24
42.3555,32
42.3741,21
42.3927,34
42.4113,29
42.4298,27
42.4484,31
42.4670,38
42.4856,26
42.5041,29
42.5227,25
42.5413,20
42.5599,28
42.5784,27
42.5970,18
42.6156,35
42.6342,23
42.6527,26
42.6713,21
42.6899,31
42.7085,22
42.7270,23
42.7456,30
42.7642,21
42.7828,18
42.8013,36
42.8199,20
42.8385,28
42.8571,22
42.8756,19
42.8942,18
42.9128,20
42.9314,23
42.9500,24
42.9685,33
42.9871,33
43.0057,29
43.0243,23
43.0428,22
43.0614,31
43.0800,26
43.0986,30
43.1171,28
43.1357,26
43.1543,28
43.1729,37
43.1914,28
43.2100,26
43.2286,41
43.2472,33
43.2657,37
43.2843,37
43.3029,34
43.3215,31
43.3400,38
43.3586,27
43.3772,28
43.3958,28
43.4143,17
43.4329,17
43.4515,32
43.4701,55
43.4886,37
43.5072,63
43.5258,56
43.5444,38
43.5629,37
43.5815,35
43.6001,33
43.6187,31
43.6372,33
43.6558,29
43.6744,30
43.6930,29
43.7116,39
43.7301,27
43.7487,26
43.7673,29
43.7859,28
43.8044,22
43.8230,13
43.8416,19
43.8602,24
43.8787,22
43.8973,18
43.9159,35
43.9345,28
43.9530,27
43.9716,16
43.9902,17
44.0088,26
44.0273,29
44.0459,19
44.0645,23
44.0831,22
44.1016,33
44.1202,38
44.1388,31
44.1574,26
44.1759,22
44.1945,34
44.2131,41
44.2317,27
44.2502,38
44.2688,31
44.2874,22
44.3060,33
44.3245,31
44.3431,24
44.3617,27
44.3803,21
44.3988,32
44.4174,29
44.4360,38
44.4546,29
44.4732,27
44.4917,19
44.5103,23
44.5289,34
44.5475,28
44.5660,27
44.5846,31
44.6032,45
44.6218,26
44.6403,31
44.6589,22
44.6775,34
44.6961,34
44.7146,36
44.7332,27
44.7518,35
44.7704,30
44.7889,25
44.8075,31
44.8261,25
44.8447,21
44.8632,30
44.8818,25
44.9004,29
44.9190,23
44.9375,27
44.9561,28
44.9747,27
44.9933,23
45.0118,17
45.0304,29
45.0490,19
45.0676,32
45.0861,24
45.1047,28
45.1233,28
45.1419,25
45.1604,23
45.1790,21
45.1976,21
45.2162,22
45.2347,25
45.2533,28
45.2719,25
45.2905,18
45.3091,20
45.3276,20
45.3462,24
45.3648,34
45.3834,28
45.4019,23
45.4205,19
45.4391,26
45.4577,24
45.4762,30
45.4948,23
45.5134,30
45.5320,16
45.5505,26
45.5691,32
45.5877,33
45.6063,35
45.6248,27
45.6434,19
45.6620,29
45.6806,22
45.6991,22
45.7177,32
45.7363,30
45.7549,30
45.7734,27
45.7920,27
45.8106,28
45.8292,25
45.8477,24
45.8663,18
45.8849,23
45.9035,27
45.9220,26
45.9406,16
45.9592,29
45.9778,33
45.9963,23
46.0149,30
46.0335,26
46.0521,26
46.0707,27
46.0892,22
46.1078,26
46.1264,32
46.1450,13
46.1635,20
46.1821,24
46.2007,20
46.2193,21
46.2378,23
46.2564,25
46.2750,32
46.2936,32
46.3121,30
46.3307,33
46.3493,23
46.3679,20
46.3864,26
46.4050,27
46.4236,25
46.4422,23
46.4607,22
46.4793,24
46.4979,25
46.5165,30
46.5350,30
46.5536,29
46.5722,29
46.5908,34
46.6093,19
46.6279,18
46.6465,19
46.6651,37
46.6836,21
46.7022,20
46.7208,19
46.7394,23
46.7579,24
46.7765,21
46.7951,28
46.8137,14
46.8323,20
46.8508,30
46.8694,21
46.8880,23
46.9066,32
46.9251,25
46.9437,21
46.9623,23
46.9809,35
46.9994,25
47.0180,13
47.0366,24
47.0552,24
47.0737,28
47.0923,25
47.1109,17
47.1295,23
47.1480,25
47.1666,13
47.1852,37
47.2038,23
47.2223,25
47.2409,29
47.2595,18
47.2781,19
47.2966,27
47.3152,24
47.3338,27
47.3524,25
47.3709,18
47.3895,19
47.4081,16
47.4267,25
47.4452,31
47.4638,17
47.4824,31
47.5010,29
47.5195,20
47.5381,27
47.5567,20
47.5753,18
47.5939,20
47.6124,27
47.6310,23
47.6496,23
47.6682,16
47.6867,18
47.7053,21
47.7239,23
47.7425,20
47.7610,23
47.7796,21
47.7982,17
47.8168,25
47.8353,20
47.8539,29
47.8725,22
47.8911,21
47.9096,16
47.9282,22
47.9468,25
47.9654,18
47.9839,19
48.0025,18
48.0211,26
48.0397,28
48.0582,23
48.0768,21
48.0954,17
48.1140,22
48.1325,19
48.1511,24
48.1697,28
48.1883,22
48.2068,30
48.2254,18
48.2440,18
48.2626,34
48.2811,17
48.2997,19
48.3183,22
48.3369,26
48.3555,19
48.3740,19
48.3926,12
48.4112,25
48.4298,26
48.4483,29
48.4669,27
48.4855,27
48.5041,19
48.5226,22
48.5412,28
48.5598,30
48.5784,20
48.5969,22
48.6155,16
48.6341,16
48.6527,15
48.6712,22
48.6898,22
48.7084,18
48.7270,22
48.7455,19
48.7641,26
48.7827,33
48.8013,19
48.8198,18
48.8384,24
48.8570,25
48.8756,22
48.8941,33
48.9127,29
48.9313,42
48.9499,37
48.9684,42
48.9870,35
49.0056,27
49.0242,28
49.0427,34
49.0613,24
49.0799,30
49.0985,33
49.1171,29
49.1356,32
49.1542,22
49.1728,27
49.1914,27
49.2099,22
49.2285,20
49.2471,27
49.2657,25
49.2842,29
49.3028,22
49.3214,24
49.3400,20
49.3585,16
49.3771,20
49.3957,27
49.4143,29
49.4328,35
49.4514,16
49.4700,17
49.4886,28
49.5071,19
49.5257,27
49.5443,25
49.5629,32
49.5814,18
49.6000,18
49.6186,22
49.6372,24
49.6557,19
49.6743,35
49.6929,23
49.7115,25
49.7300,17
49.7486,17
49.7672,16
49.7858,35
49.8043,15
49.8229,25
49.8415,15
49.8601,21
49.8786,20
49.8972,17
49.9158,23
49.9344,16
49.9530,24
49.9715,17
49.9901,21
50.0087,27
50.0273,19
50.0458,26
50.0644,23
50.0830,18
50.1016,26
50.1201,37
50.1387,26
50.1573,29
50.1759,17
50.1944,25
50.2130,21
50.2316,24
50.2502,20
50.2687,19
50.2873,19
50.3059,20
50.3245,24
50.3430,15
50.3616,24
50.3802,16
50.3988,20
50.4173,24
50.4359,23
50.4545,20
50.4731,25
50.4916,26
50.5102,26
50.5288,19
50.5474,19
50.5659,14
50.5845,21
50.6031,19
50.6217,22
50.6402,17
50.6588,24
50.6774,17
50.6960,20
50.7146,19
50.7331,21
50.7517,20
50.7703,22
50.7889,20
50.8074,20
50.8260,30
50.8446,16
50.8632,28
50.8817,26
50.9003,28
50.9189,20
50.9375,26
50.9560,19
50.9746,21
50.9932,23
51.0118,25
51.0303,25
51.0489,18
51.0675,14
51.0861,20
51.1046,25
51.1232,12
51.1418,17
51.1604,18
51.1789,14
51.1975,27
51.2161,20
51.2347,18
51.2532,23
51.2718,25
51.2904,27
51.3090,22
51.3275,20
51.3461,20
51.3647,36
51.3833,33
51.4018,27
51.4204,28
51.4390,24
51.4576,25
51.4762,25
51.4947,29
51.5133,33
51.5319,20
51.5505,24
51.5690,26
51.5876,19
51.6062,22
51.6248,20
51.6433,28
51.6619,14
51.6805,31
51.6991,21
51.7176,17
51.7362,20
51.7548,25
51.7734,26
51.7919,19
51.8105,19
51.8291,28
51.8477,26
51.8662,28
51.8848,23
51.9034,29
51.9220,19
51.9405,27
51.9591,14
51.9777,21
51.9963,27
52.0148,23
52.0334,19
52.0520,24
52.0706,19
52.0891,21
52.1077,19
52.1263,14
52.1449,18
52.1634,18
52.1820,23
52.2006,13
52.2192,23
52.2378,30
52.2563,26
52.2749,23
52.2935,21
52.3121,20
52.3306,22
52.3492,14
52.3678,22
52.3864,20
52.4049,20
52.4235,28
52.4421,19
52.4607,22
52.4792,18
52.4978,18
52.5164,22
52.5350,19
52.5535,19
52.5721,16
52.5907,25
52.6093,14
52.6278,18
52.6464,15
52.6650,16
52.6836,22
52.7021,18
52.7207,23
52.7393,17
52.7579,26
52.7764,23
52.7950,22
52.8136,22
52.8322,24
52.8507,39
52.8693,30
52.8879,31
52.9065,18
52.9250,20
52.9436,20
52.9622,24
52.9808,23
52.9994,16
53.0179,26
53.0365,16
53.0551,22
53.0737,22
53.0922,21
53.1108,23
53.1294,21
53.1480,13
53.1665,25
53.1851,18
53.2037,20
53.2223,21
53.2408,23
53.2594,21
53.2780,26
53.2966,21
53.3151,24
53.3337,18
53.3523,20
53.3709,30
53.3894,22
53.4080,15
53.4266,22
53.4452,15
53.4637,25
53.4823,21
53.5009,18
53.5195,21
53.5380,16
53.5566,13
53.5752,27
53.5938,28
53.6123,16
53.6309,17
53.6495,17
53.6681,15
53.6866,16
53.7052,19
53.7238,17
53.7424,17
53.7610,20
53.7795,26
53.7981,20
53.8167,19
53.8353,12
53.8538,21
53.8724,16
53.8910,22
53.9096,25
53.9281,18
53.9467,25
53.9653,22
53.9839,24
54.0024,29
54.0210,29
54.0396,18
54.0582,17
54.0767,28
54.0953,21
54.1139,27
54.1325,23
54.1510,17
54.1696,27
54.1882,18
54.2068,26
54.2253,21
54.2439,18
54.2625,26
54.2811,23
54.2996,18
54.3182,14
54.3368,23
54.3554,20
54.3739,25
54.3925,15
54.4111,30
54.4297,17
54.4482,26
54.4668,17
54.4854,17
54.5040,18
54.5225,18
54.5411,12
54.5597,25
54.5783,25
54.5969,17
54.6154,21
54.6340,14
54.6526,23
54.6712,14
54.6897,20
54.7083,27
54.7269,14
54.7455,22
54.7640,17
54.7826,21
54.8012,19
54.8198,23
54.8383,18
54.8569,19
54.8755,15
54.8941,18
54.9126,25
54.9312,18
54.9498,25
54.9684,17
54.9869,10
55.0055,22
55.0241,23
55.0427,23
55.0612,24
55.0798,21
55.0984,18
55.1170,15
55.1355,20
55.1541,25
55.1727,20
55.1913,19
55.2098,18
55.2284,26
55.2470,17
55.2656,23
55.2841,17
55.3027,23
55.3213,26
55.3399,29
55.3585,22
55.3770,23
55.3956,17
55.4142,18
55.4328,19
55.4513,22
55.4699,15
55.4885,22
55.5071,21
55.5256,11
55.5442,18
55.5628,27
55.5814,17
55.5999,24
55.6185,16
55.6371,17
55.6557,14
55.6742,19
55.6928,18
55.7114,18
55.7300,21
55.7485,25
55.7671,20
55.7857,19
55.8043,16
55.8228,22
55.8414,19
55.8600,15
55.8786,21
55.8971,22
55.9157,25
55.9343,20
55.9529,29
55.9714,21
55.9900,24
56.0086,26
56.0272,25
56.0457,19
56.0643,20
56.0829,19
56.1015,16
56.1201,21
56.1386,13
56.1572,31
56.1758,28
56.1944,20
56.2129,16
56.2315,20
56.2501,27
56.2687,23
56.2872,22
56.3058,15
56.3244,19
56.3430,19
56.3615,17
56.3801,22
56.3987,22
56.4173,18
56.4358,16
56.4544,20
56.4730,24
56.4916,22
56.5101,31
56.5287,17
56.5473,16
56.5659,24
56.5844,21
56.6030,22
56.6216,25
56.6402,14
56.6587,24
56.6773,22
56.6959,26
56.7145,16
56.7330,25
56.7516,13
56.7702,19
56.7888,22
56.8073,18
56.8259,21
56.8445,15
56.8631,28
56.8817,18
56.9002,15
56.9188,15
56.9374,21
56.9560,29
56.9745,21
56.9931,28
57.0117,14
57.0303,20
57.0488,28
57.0674,25
57.0860,16
57.1046,16
57.1231,20
57.1417,18
57.1603,32
57.1789,15
57.1974,15
57.2160,20
57.2346,18
57.2532,14
57.2717,24
57.2903,29
57.3089,17
57.3275,13
57.3460,25
57.3646,13
57.3832,15
57.4018,20
57.4203,18
57.4389,17
57.4575,16
57.4761,16
57.4946,19
57.5132,15
57.5318,26
57.5504,21
57.5689,13
57.5875,22
57.6061,20
57.6247,20
57.6433,19
57.6618,25
57.6804,25
57.6990,20
57.7176,25
57.7361,36
57.7547,25
57.7733,20
57.7919,21
57.8104,20
57.8290,18
57.8476,18
57.8662,24
57.8847,25
57.9033,22
57.9219,16
57.9405,17
57.9590,18
57.9776,16
57.9962,23
58.0148,20
58.0333,25
58.0519,16
58.0705,19
58.0891,15
58.1076,12
58.1262,20
58.1448,13
58.1634,11
58.1819,13
58.2005,15
58.2191,28
58.2377,20
58.2562,22
58.2748,18
58.2934,31
58.3120,20
58.3305,16
58.3491,20
58.3677,26
58.3863,21
58.4049,24
58.4234,30
58.4420,14
58.4606,24
58.4792,22
58.4977,21
58.5163,23
58.5349,19
58.5535,21
58.5720,25
58.5906,13
58.6092,16
58.6278,17
58.6463,15
58.6649,22
58.6835,17
58.7021,12
58.7206,14
58.7392,23
58.7578,23
58.7764,14
58.7949,21
58.8135,18
58.8321,23
58.8507,16
58.8692,12
58.8878,18
58.9064,19
58.9250,22
58.9435,16
58.9621,14
58.9807,19
58.9993,24
59.0178,17
59.0364,16
59.0550,26
59.0736,26
59.0921,30
59.1107,17
59.1293,19
59.1479,22
59.1664,20
59.1850,21
59.2036,19
59.2222,11
59.2408,18
59.2593,22
59.2779,17
59.2965,13
59.3151,24
59.3336,26
59.3522,16
59.3708,25
59.3894,22
59.4079,11
59.4265,22
59.4451,20
59.4637,23
59.4822,19
59.5008,19
59.5194,24
59.5380,23
59.5565,16
59.5751,26
59.5937,18
59.6123,18
59.6308,20
59.6494,22
59.6680,18
59.6866,23
59.7051,25
59.7237,14
59.7423,22
59.7609,25
59.7794,20
59.7980,22
59.8166,27
59.8352,15
59.8537,24
59.8723,28
59.8909,18
59.9095,23
59.9280,20
59.9466,21
59.9652,27
59.9838,20
60.0024,16
