;,2THETA,
5.0000,120
5.0186,126
5.0372,124
5.0557,113
5.0743,128
5.0929,135
5.1115,126
5.1300,128
5.1486,128
5.1672,132
5.1858,127
5.2043,121
5.2229,129
5.2415,102
5.2601,120
5.2786,108
5.2972,125
5.3158,133
5.3344,112
5.3529,123
5.3715,123
5.3901,132
5.4087,104
5.4272,100
5.4458,114
5.4644,98
5.4830,117
5.5015,120
5.5201,102
5.5387,98
5.5573,105
5.5758,113
5.5944,105
5.6130,94
5.6316,104
5.6501,91
5.6687,101
5.6873,90
5.7059,110
5.7244,87
5.7430,81
5.7616,102
5.7802,108
5.7988,104
5.8173,109
5.8359,116
5.8545,108
5.8731,89
5.8916,117
5.9102,112
5.9288,83
5.9474,97
5.9659,88
5.9845,85
6.0031,88
6.0217,115
6.0402,97
6.0588,108
6.0774,97
6.0960,83
6.1145,94
6.1331,97
6.1517,88
6.1703,90
6.1888,92
6.2074,81
6.2260,100
6.2446,93
6.2631,86
6.2817,106
6.3003,94
6.3189,96
6.3374,92
6.3560,99
6.3746,94
6.3932,99
6.4117,89
6.4303,90
6.4489,82
6.4675,86
6.4860,81
6.5046,94
6.5232,86
6.5418,91
6.5604,90
6.5789,76
6.5975,89
6.6161,82
6.6347,89
6.6532,92
6.6718,93
6.6904,91
6.7090,76
6.7275,88
6.7461,88
6.7647,93
6.7833,70
6.8018,74
6.8204,70
6.8390,91
6.8576,84
6.8761,85
6.8947,77
6.9133,87
6.9319,67
6.9504,78
6.9690,92
6.9876,72
7.0062,96
7.0247,76
7.0433,75
7.0619,87
7.0805,84
7.0990,82
7.1176,88
7.1362,67
7.1548,83
7.1733,62
7.1919,75
7.2105,60
7.2291,71
7.2476,99
7.2662,76
7.2848,73
7.3034,85
7.3220,77
7.3405,70
7.3591,66
7.3777,67
7.3963,78
7.4148,87
7.4334,78
7.4520,69
7.4706,77
7.4891,84
7.5077,81
7.5263,80
7.5449,71
7.5634,87
7.5820,72
7.6006,100
7.6192,98
7.6377,109
7.6563,84
7.6749,100
7.6935,84
7.7120,92
7.7306,104
7.7492,88
7.7678,87
7.7863,63
7.8049,93
7.8235,84
7.8421,91
7.8606,70
7.8792,103
7.8978,90
7.9164,90
7.9349,88
7.9535,122
7.9721,93
7.9907,87
8.0092,89
8.0278,120
8.0464,97
8.0650,81
8.0835,94
8.1021,99
8.1207,89
8.1393,86
8.1579,94
8.1764,74
8.1950,94
8.2136,100
8.2322,123
8.2507,83
8.2693,73
8.2879,88
8.3065,86
8.3250,96
8.3436,87
8.3622,102
8.3808,91
8.3993,95
8.4179,95
8.4365,100
8.4551,108
8.4736,95
8.4922,86
8.5108,95
8.5294,100
8.5479,111
8.5665,113
8.5851,97
8.6037,102
8.6222,101
8.6408,106
8.6594,99
8.6780,112
8.6965,107
8.7151,93
8.7337,124
8.7523,91
8.7708,101
8.7894,83
8.8080,98
8.8266,115
8.8451,107
8.8637,126
8.8823,92
8.9009,104
8.9195,119
8.9380,99
8.9566,117
8.9752,108
8.9938,95
9.0123,87
9.0309,111
9.0495,93
9.0681,111
9.0866,114
9.1052,110
9.1238,103
9.1424,102
9.1609,94
9.1795,99
9.1981,115
9.2167,98
9.2352,115
9.2538,119
9.2724,118
9.2910,94
9.3095,107
9.3281,109
9.3467,87
9.3653,112
9.3838,109
9.4024,107
9.4210,98
9.4396,103
9.4581,103
9.4767,119
9.4953,106
9.5139,106
9.5324,117
9.5510,116
9.5696,105
9.5882,116
9.6067,109
9.6253,115
9.6439,102
9.6625,111
9.6811,121
9.6996,131
9.7182,111
9.7368,115
9.7554,101
9.7739,111
9.7925,123
9.8111,109
9.8297,130
9.8482,130
9.8668,119
9.8854,137
9.9040,110
9.9225,116
9.9411,113
9.9597,140
9.9783,126
9.9968,116
10.0154,94
10.0340,141
10.0526,101
10.0711,125
10.0897,130
10.1083,125
10.1269,114
10.1454,119
10.1640,119
10.1826,104
10.2012,120
10.2197,137
10.2383,116
10.2569,103
10.2755,117
10.2940,127
10.3126,129
10.3312,120
10.3498,124
10.3683,109
10.3869,108
10.4055,119
10.4241,104
10.4427,113
10.4612,105
10.4798,122
10.4984,116
10.5170,121
10.5355,139
10.5541,103
10.5727,121
10.5913,105
10.6098,119
10.6284,124
10.6470,130
10.6656,144
10.6841,122
10.7027,126
10.7213,125
10.7399,123
10.7584,126
10.7770,116
10.7956,120
10.8142,106
10.8327,129
10.8513,130
10.8699,105
10.8885,103
10.9070,106
10.9256,119
10.9442,120
10.9628,113
10.9813,97
10.9999,130
11.0185,125
11.0371,120
11.0556,124
11.0742,101
11.0928,120
11.1114,118
11.1299,125
11.1485,113
11.1671,107
11.1857,104
11.2043,119
11.2228,120
11.2414,132
11.2600,134
11.2786,120
11.2971,135
11.3157,105
11.3343,113
11.3529,125
11.3714,122
11.3900,120
11.4086,138
11.4272,125
11.4457,114
11.4643,142
11.4829,107
11.5015,120
11.5200,89
11.5386,114
11.5572,129
11.5758,97
11.5943,125
11.6129,105
11.6315,107
11.6501,120
11.6686,116
11.6872,123
11.7058,124
11.7244,125
11.7429,110
11.7615,112
11.7801,122
11.7987,112
11.8172,119
11.8358,126
11.8544,106
11.8730,110
11.8915,107
11.9101,115
11.9287,114
11.9473,120
11.9659,120
11.9844,93
12.0030,132
12.0216,101
12.0402,105
12.0587,108
12.0773,101
12.0959,98
12.1145,116
12.1330,110
12.1516,120
12.1702,117
12.1888,109
12.2073,108
12.2259,117
12.2445,96
12.2631,105
12.2816,84
12.3002,109
12.3188,112
12.3374,90
12.3559,103
12.3745,125
12.3931,99
12.4117,103
12.4302,119
12.4488,117
12.4674,89
12.4860,122
12.5045,105
12.5231,111
12.5417,100
12.5603,127
12.5788,112
12.5974,103
12.6160,96
12.6346,105
12.6531,93
12.6717,100
12.6903,102
12.7089,96
12.7274,108
12.7460,93
12.7646,90
12.7832,98
12.8018,119
12.8203,114
12.8389,109
12.8575,99
12.8761,99
12.8946,103
12.9132,94
12.9318,93
12.9504,108
12.9689,92
12.9875,96
13.0061,94
13.0247,106
13.0432,104
13.0618,95
13.0804,93
13.0990,108
13.1175,114
13.1361,102
13.1547,90
13.1733,100
13.1918,99
13.2104,85
13.2290,112
13.2476,99
13.2661,99
13.2847,90
13.3033,89
13.3219,102
13.3404,101
13.3590,76
13.3776,96
13.3962,88
13.4147,101
13.4333,93
13.4519,114
13.4705,85
13.4890,83
13.5076,96
13.5262,90
13.5448,125
13.5634,77
13.5819,85
13.6005,100
13.6191,93
13.6377,84
13.6562,113
13.6748,106
13.6934,118
13.7120,106
13.7305,91
13.7491,84
13.7677,97
13.7863,92
13.8048,106
13.8234,97
13.8420,87
13.8606,94
13.8791,95
13.8977,90
13.9163,84
13.9349,86
13.9534,87
13.9720,94
13.9906,114
14.0092,98
14.0277,110
14.0463,95
14.0649,105
14.0835,87
14.1020,88
14.1206,85
14.1392,86
14.1578,88
14.1763,76
14.1949,94
14.2135,76
14.2321,98
14.2506,80
14.2692,90
14.2878,86
14.3064,82
14.3250,78
14.3435,99
14.3621,87
14.3807,79
14.3993,82
14.4178,88
14.4364,93
14.4550,87
14.4736,90
14.4921,96
14.5107,93
14.5293,73
14.5479,95
14.5664,95
14.5850,86
14.6036,90
14.6222,80
14.6407,87
14.6593,71
14.6779,76
14.6965,98
14.7150,97
14.7336,82
14.7522,83
14.7708,99
14.7893,80
14.8079,76
14.8265,71
14.8451,93
14.8636,84
14.8822,84
14.9008,83
14.9194,88
14.9379,92
14.9565,87
14.9751,93
14.9937,71
15.0122,89
15.0308,80
15.0494,100
15.0680,90
15.0866,80
15.1051,82
15.1237,82
15.1423,91
15.1609,73
15.1794,88
15.1980,82
15.2166,96
15.2352,72
15.2537,81
15.2723,90
15.2909,85
15.3095,84
15.3280,82
15.3466,67
15.3652,83
15.3838,79
15.4023,74
15.4209,73
15.4395,76
15.4581,72
15.4766,89
15.4952,87
15.5138,74
15.5324,96
15.5509,96
15.5695,71
15.5881,68
15.6067,76
15.6252,90
15.6438,87
15.6624,72
15.6810,89
15.6995,84
15.7181,77
15.7367,88
15.7553,92
15.7738,83
15.7924,87
15.8110,91
15.8296,74
15.8482,62
15.8667,75
15.8853,87
15.9039,67
15.9225,75
15.9410,91
15.9596,70
15.9782,85
15.9968,78
16.0153,86
16.0339,99
16.0525,83
16.0711,87
16.0896,84
16.1082,100
16.1268,79
16.1454,83
16.1639,78
16.1825,77
16.2011,94
16.2197,64
16.2382,76
16.2568,79
16.2754,90
16.2940,71
16.3125,72
16.3311,83
16.3497,87
16.3683,95
16.3868,95
16.4054,93
16.4240,85
16.4426,83
16.4611,82
16.4797,75
16.4983,84
16.5169,80
16.5354,72
16.5540,74
16.5726,87
16.5912,85
16.6097,76
16.6283,86
16.6469,75
16.6655,72
16.6841,83
16.7026,78
16.7212,68
16.7398,72
16.7584,88
16.7769,80
16.7955,55
16.8141,71
16.8327,82
16.8512,82
16.8698,72
16.8884,65
16.9070,87
16.9255,76
16.9441,76
16.9627,62
16.9813,79
16.9998,109
17.0184,88
17.0370,98
17.0556,86
17.0741,99
17.0927,78
17.1113,90
17.1299,91
17.1484,101
17.1670,97
17.1856,78
17.2042,73
17.2227,75
17.2413,85
17.2599,77
17.2785,64
17.2970,88
17.3156,82
17.3342,82
17.3528,82
17.3713,97
17.3899,96
17.4085,82
17.4271,83
17.4457,93
17.4642,67
17.4828,91
17.5014,95
17.5200,82
17.5385,81
17.5571,82
17.5757,76
17.5943,86
17.6128,71
17.6314,74
17.6500,98
17.6686,77
17.6871,83
17.7057,95
17.7243,83
17.7429,76
17.7614,91
17.7800,71
17.7986,67
17.8172,71
17.8357,79
17.8543,62
17.8729,83
17.8915,87
17.9100,63
17.9286,108
17.9472,78
17.9658,81
17.9843,83
18.0029,86
18.0215,80
18.0401,74
18.0586,70
18.0772,81
18.0958,65
18.1144,82
18.1329,75
18.1515,84
18.1701,87
18.1887,75
18.2073,91
18.2258,76
18.2444,75
18.2630,66
18.2816,76
18.3001,89
18.3187,86
18.3373,94
18.3559,93
18.3744,93
18.3930,78
18.4116,86
18.4302,76
18.4487,77
18.4673,79
18.4859,86
18.5045,82
18.5230,70
18.5416,76
18.5602,77
18.5788,78
18.5973,95
18.6159,78
18.6345,85
18.6531,72
18.6716,86
18.6902,93
18.7088,98
18.7274,77
18.7459,72
18.7645,86
18.7831,88
18.8017,81
18.8202,95
18.8388,75
18.8574,83
18.8760,81
18.8945,77
18.9131,108
18.9317,91
18.9503,80
18.9689,72
18.9874,87
19.0060,100
19.0246,79
19.0432,93
19.0617,92
19.0803,92
19.0989,75
19.1175,74
19.1360,85
19.1546,72
19.1732,93
19.1918,80
19.2103,104
19.2289,82
19.2475,85
19.2661,81
19.2846,79
19.3032,75
19.3218,97
19.3404,73
19.3589,82
19.3775,90
19.3961,88
19.4147,85
19.4332,85
19.4518,83
19.4704,84
19.4890,105
19.5075,81
19.5261,89
19.5447,81
19.5633,70
19.5818,89
19.6004,84
19.6190,79
19.6376,78
19.6561,77
19.6747,72
19.6933,83
19.7119,86
19.7305,75
19.7490,91
19.7676,76
19.7862,91
19.8048,80
19.8233,83
19.8419,70
19.8605,82
19.8791,74
19.8976,85
19.9162,94
19.9348,82
19.9534,75
19.9719,87
19.9905,96
20.0091,76
20.0277,90
20.0462,90
20.0648,97
20.0834,95
20.1020,77
20.1205,84
20.1391,86
20.1577,81
20.1763,67
20.1948,71
20.2134,80
20.2320,94
20.2506,79
20.2691,76
20.2877,82
20.3063,100
20.3249,69
20.3434,86
20.3620,90
20.3806,87
20.3992,107
20.4177,88
20.4363,97
20.4549,94
20.4735,88
20.4921,81
20.5106,84
20.5292,98
20.5478,77
20.5664,87
20.5849,100
20.6035,95
20.6221,85
20.6407,93
20.6592,96
20.6778,93
20.6964,100
20.7150,110
20.7335,104
20.7521,97
20.7707,81
20.7893,95
20.8078,95
20.8264,107
20.8450,98
20.8636,98
20.8821,103
20.9007,103
20.9193,90
20.9379,80
20.9564,89
20.9750,84
20.9936,104
21.0122,79
21.0307,85
21.0493,94
21.0679,94
21.0865,97
21.1050,105
21.1236,106
21.1422,105
21.1608,119
21.1793,141
21.1979,129
21.2165,156
21.2351,149
21.2537,134
21.2722,146
21.2908,129
21.3094,162
21.3280,155
21.3465,219
21.3651,284
21.3837,179
21.4023,179
21.4208,175
21.4394,135
21.4580,108
21.4766,120
21.4951,93
21.5137,101
21.5323,93
21.5509,108
21.5694,93
21.5880,90
21.6066,102
21.6252,110
21.6437,94
21.6623,118
21.6809,109
21.6995,102
21.7180,88
21.7366,80
21.7552,99
21.7738,91
21.7923,107
21.8109,103
21.8295,80
21.8481,89
21.8666,89
21.8852,107
21.9038,92
21.9224,82
21.9409,93
21.9595,91
21.9781,78
21.9967,91
22.0152,102
22.0338,105
22.0524,118
22.0710,99
22.0896,90
22.1081,78
22.1267,83
22.1453,95
22.1639,109
22.1824,88
22.2010,117
22.2196,96
22.2382,114
22.2567,97
22.2753,92
22.2939,114
22.3125,83
22.3310,95
22.3496,92
22.3682,84
22.3868,91
22.4053,98
22.4239,95
22.4425,99
22.4611,80
22.4796,91
22.4982,100
22.5168,110
22.5354,121
22.5539,81
22.5725,89
22.5911,91
22.6097,105
22.6282,91
22.6468,109
22.6654,84
22.6840,86
22.7025,97
22.7211,112
22.7397,107
22.7583,105
22.7768,110
22.7954,98
22.8140,82
22.8326,77
22.8512,100
22.8697,96
22.8883,93
22.9069,115
22.9255,91
22.9440,98
22.9626,84
22.9812,107
22.9998,106
23.0183,110
23.0369,100
23.0555,93
23.0741,103
23.0926,98
23.1112,112
23.1298,113
23.1484,106
23.1669,86
23.1855,126
23.2041,87
23.2227,103
23.2412,86
23.2598,100
23.2784,93
23.2970,109
23.3155,88
23.3341,101
23.3527,123
23.3713,94
23.3898,95
23.4084,86
23.4270,109
23.4456,91
23.4641,82
23.4827,101
23.5013,88
23.5199,103
23.5384,110
23.5570,87
23.5756,97
23.5942,84
23.6128,96
23.6313,118
23.6499,88
23.6685,101
23.6871,86
23.7056,82
23.7242,85
23.7428,110
23.7614,135
23.7799,110
23.7985,97
23.8171,97
23.8357,109
23.8542,109
23.8728,109
23.8914,92
23.9100,107
23.9285,94
23.9471,105
23.9657,107
23.9843,109
24.0028,83
24.0214,111
24.0400,106
24.0586,105
24.0771,88
24.0957,70
24.1143,115
24.1329,92
24.1514,115
24.1700,86
24.1886,106
24.2072,95
24.2257,97
24.2443,84
24.2629,117
24.2815,108
24.3000,118
24.3186,107
24.3372,107
24.3558,103
24.3744,115
24.3929,100
24.4115,107
24.4301,95
24.4487,108
24.4672,97
24.4858,110
24.5044,91
24.5230,100
24.5415,111
24.5601,102
24.5787,72
24.5973,112
24.6158,105
24.6344,101
24.6530,95
24.6716,109
24.6901,110
24.7087,105
24.7273,96
24.7459,115
24.7644,107
24.7830,94
24.8016,97
24.8202,99
24.8387,95
24.8573,92
24.8759,82
24.8945,103
24.9130,106
24.9316,97
24.9502,108
24.9688,108
24.9873,84
25.0059,101
25.0245,86
25.0431,89
25.0616,102
25.0802,101
25.0988,105
25.1174,104
25.1360,93
25.1545,87
25.1731,101
25.1917,98
25.2103,103
25.2288,95
25.2474,102
25.2660,89
25.2846,102
25.3031,100
25.3217,108
25.3403,106
25.3589,91
25.3774,91
25.3960,106
25.4146,99
25.4332,110
25.4517,105
25.4703,105
25.4889,104
25.5075,109
25.5260,93
25.5446,100
25.5632,105
25.5818,118
25.6003,88
25.6189,91
25.6375,91
25.6561,96
25.6746,78
25.6932,89
25.7118,107
25.7304,103
25.7489,91
25.7675,93
25.7861,93
25.8047,86
25.8232,92
25.8418,100
25.8604,78
25.8790,91
25.8976,94
25.9161,90
25.9347,95
25.9533,81
25.9719,87
25.9904,113
26.0090,80
26.0276,109
26.0462,89
26.0647,119
26.0833,93
26.1019,105
26.1205,87
26.1390,106
26.1576,124
26.1762,103
26.1948,96
26.2133,86
26.2319,93
26.2505,106
26.2691,97
26.2876,98
26.3062,91
26.3248,89
26.3434,83
26.3619,105
26.3805,94
26.3991,102
26.4177,92
26.4362,114
26.4548,98
26.4734,83
26.4920,88
26.5105,94
26.5291,99
26.5477,97
26.5663,102
26.5848,86
26.6034,91
26.6220,75
26.6406,104
26.6591,105
26.6777,90
26.6963,97
26.7149,91
26.7335,90
26.7520,90
26.7706,84
26.7892,93
26.8078,85
26.8263,102
26.8449,75
26.8635,99
26.8821,87
26.9006,86
26.9192,95
26.9378,87
26.9564,101
26.9749,86
26.9935,83
27.0121,85
27.0307,127
27.0492,75
27.0678,93
27.0864,86
27.1050,86
27.1235,98
27.1421,100
27.1607,109
27.1793,98
27.1978,115
27.2164,137
27.2350,106
27.2536,115
27.2721,130
27.2907,99
27.3093,104
27.3279,90
27.3464,93
27.3650,87
27.3836,91
27.4022,86
27.4207,83
27.4393,108
27.4579,89
27.4765,86
27.4951,88
27.5136,85
27.5322,75
27.5508,104
27.5694,95
27.5879,87
27.6065,87
27.6251,86
27.6437,90
27.6622,86
27.6808,101
27.6994,80
27.7180,83
27.7365,86
27.7551,89
27.7737,83
27.7923,105
27.8108,85
27.8294,74
27.8480,88
27.8666,90
27.8851,85
27.9037,104
27.9223,86
27.9409,87
27.9594,90
27.9780,91
27.9966,85
28.0152,87
28.0337,76
28.0523,83
28.0709,86
28.0895,86
28.1080,94
28.1266,82
28.1452,86
28.1638,71
28.1823,91
28.2009,84
28.2195,95
28.2381,105
28.2567,78
28.2752,92
28.2938,85
28.3124,87
28.3310,84
28.3495,78
28.3681,89
28.3867,72
28.4053,86
28.4238,79
28.4424,77
28.4610,79
28.4796,78
28.4981,82
28.5167,90
28.5353,94
28.5539,84
28.5724,80
28.5910,80
28.6096,79
28.6282,78
28.6467,89
28.6653,99
28.6839,85
28.7025,62
28.7210,78
28.7396,89
28.7582,72
28.7768,73
28.7953,66
28.8139,73
28.8325,98
28.8511,73
28.8696,81
28.8882,69
28.9068,69
28.9254,72
28.9439,84
28.9625,82
28.9811,70
28.9997,96
29.0183,93
29.0368,81
29.0554,69
29.0740,71
29.0926,80
29.1111,76
29.1297,79
29.1483,80
29.1669,78
29.1854,91
29.2040,95
29.2226,93
29.2412,69
29.2597,80
29.2783,86
29.2969,89
29.3155,67
29.3340,86
29.3526,84
29.3712,96
29.3898,79
29.4083,81
29.4269,79
29.4455,87
29.4641,86
29.4826,92
29.5012,78
29.5198,80
29.5384,86
29.5569,75
29.5755,94
29.5941,87
29.6127,69
29.6312,84
29.6498,66
29.6684,87
29.6870,94
29.7055,93
29.7241,87
29.7427,74
29.7613,69
29.7799,82
29.7984,79
29.8170,76
29.8356,81
29.8542,71
29.8727,77
29.8913,76
29.9099,75
29.9285,83
29.9470,75
29.9656,65
29.9842,73
30.0028,76
30.0213,68
30.0399,73
30.0585,91
30.0771,80
30.0956,87
30.1142,72
30.1328,73
30.1514,84
30.1699,100
30.1885,84
30.2071,81
30.2257,79
30.2442,71
30.2628,86
30.2814,71
30.3000,88
30.3185,88
30.3371,97
30.3557,117
30.3743,141
30.3928,173
30.4114,119
30.4300,100
30.4486,126
30.4671,143
30.4857,106
30.5043,84
30.5229,102
30.5415,74
30.5600,66
30.5786,74
30.5972,90
30.6158,73
30.6343,73
30.6529,80
30.6715,78
30.6901,79
30.7086,68
30.7272,85
30.7458,75
30.7644,85
30.7829,69
30.8015,77
30.8201,61
30.8387,67
30.8572,82
30.8758,62
30.8944,78
30.9130,70
30.9315,95
30.9501,68
30.9687,56
30.9873,76
31.0058,84
31.0244,60
31.0430,79
31.0616,55
31.0801,76
31.0987,62
31.1173,84
31.1359,81
31.1544,83
31.1730,55
31.1916,75
31.2102,54
31.2287,64
31.2473,65
31.2659,56
31.2845,65
31.3030,72
31.3216,78
31.3402,76
31.3588,87
31.3774,54
31.3959,64
31.4145,64
31.4331,84
31.4517,66
31.4702,71
31.4888,83
31.5074,68
31.5260,60
31.5445,66
31.5631,78
31.5817,78
31.6003,65
31.6188,72
31.6374,68
31.6560,58
31.6746,63
31.6931,62
31.7117,64
31.7303,90
31.7489,48
31.7674,57
31.7860,59
31.8046,66
31.8232,72
31.8417,67
31.8603,74
31.8789,75
31.8975,71
31.9160,62
31.9346,72
31.9532,64
31.9718,58
31.9903,69
32.0089,65
32.0275,60
32.0461,60
32.0646,58
32.0832,66
32.1018,83
32.1204,59
32.1390,60
32.1575,74
32.1761,68
32.1947,60
32.2133,69
32.2318,63
32.2504,72
32.2690,71
32.2876,73
32.3061,69
32.3247,82
32.3433,69
32.3619,90
32.3804,83
32.3990,76
32.4176,80
32.4362,80
32.4547,65
32.4733,70
32.4919,70
32.5105,60
32.5290,84
32.5476,80
32.5662,87
32.5848,63
32.6033,70
32.6219,71
32.6405,77
32.6591,77
32.6776,45
32.6962,51
32.7148,62
32.7334,59
32.7519,59
32.7705,59
32.7891,53
32.8077,59
32.8262,68
32.8448,52
32.8634,43
32.8820,71
32.9006,60
32.9191,63
32.9377,61
32.9563,67
32.9749,64
32.9934,53
33.0120,62
33.0306,57
33.0492,58
33.0677,59
33.0863,61
33.1049,55
33.1235,69
33.1420,67
33.1606,56
33.1792,55
33.1978,52
33.2163,65
33.2349,54
33.2535,60
33.2721,75
33.2906,77
33.3092,57
33.3278,48
33.3464,54
33.3649,56
33.3835,51
33.4021,54
33.4207,46
33.4392,62
33.4578,69
33.4764,70
33.4950,59
33.5135,54
33.5321,57
33.5507,72
33.5693,59
33.5878,53
33.6064,68
33.6250,64
33.6436,52
33.6622,62
33.6807,64
33.6993,66
33.7179,52
33.7365,51
33.7550,63
33.7736,59
33.7922,79
33.8108,66
33.8293,76
33.8479,77
33.8665,72
33.8851,52
33.9036,48
33.9222,48
33.9408,61
33.9594,57
33.9779,49
33.9965,58
34.0151,54
34.0337,43
34.0522,66
34.0708,56
34.0894,66
34.1080,54
34.1265,44
34.1451,61
34.1637,46
34.1823,48
34.2008,47
34.2194,67
34.2380,54
34.2566,50
34.2751,43
34.2937,50
34.3123,54
34.3309,58
34.3494,62
34.3680,60
34.3866,63
34.4052,46
34.4238,61
34.4423,52
34.4609,64
34.4795,58
34.4981,54
34.5166,65
34.5352,67
34.5538,63
34.5724,70
34.5909,62
34.6095,63
34.6281,56
34.6467,66
34.6652,61
34.6838,62
34.7024,53
34.7210,57
34.7395,58
34.7581,77
34.7767,71
34.7953,63
34.8138,80
34.8324,62
34.8510,70
34.8696,79
34.8881,76
34.9067,53
34.9253,67
34.9439,52
34.9624,65
34.9810,51
34.9996,55
35.0182,46
35.0367,48
35.0553,73
35.0739,57
35.0925,56
35.1110,62
35.1296,45
35.1482,54
35.1668,48
35.1854,57
35.2039,48
35.2225,68
35.2411,63
35.2597,41
35.2782,55
35.2968,57
35.3154,59
35.3340,52
35.3525,53
35.3711,54
35.3897,56
35.4083,53
35.4268,55
35.4454,54
35.4640,45
35.4826,52
35.5011,47
35.5197,41
35.5383,39
35.5569,49
35.5754,55
35.5940,65
35.6126,61
35.6312,46
35.6497,53
35.6683,50
35.6869,42
35.7055,57
35.7240,53
35.7426,44
35.7612,46
35.7798,48
35.7983,54
35.8169,49
35.8355,43
35.8541,47
35.8726,49
35.8912,43
35.9098,44
35.9284,47
35.9469,50
35.9655,63
35.9841,51
36.0027,41
36.0213,47
36.0398,58
36.0584,41
36.0770,47
36.0956,53
36.1141,52
36.1327,47
36.1513,46
36.1699,56
36.1884,38
36.2070,52
36.2256,42
36.2442,54
36.2627,51
36.2813,45
36.2999,51
36.3185,51
36.3370,56
36.3556,33
36.3742,48
36.3928,56
36.4113,43
36.4299,41
36.4485,43
36.4671,44
36.4856,52
36.5042,50
36.5228,59
36.5414,43
36.5599,43
36.5785,49
36.5971,48
36.6157,42
36.6342,53
36.6528,54
36.6714,47
36.6900,37
36.7085,48
36.7271,43
36.7457,50
36.7643,49
36.7829,44
36.8014,54
36.8200,54
36.8386,43
36.8572,63
36.8757,43
36.8943,56
36.9129,50
36.9315,44
36.9500,76
36.9686,35
36.9872,49
37.0058,31
37.0243,52
37.0429,45
37.0615,50
37.0801,43
37.0986,45
37.1172,42
37.1358,48
37.1544,52
37.1729,54
37.1915,49
37.2101,51
37.2287,38
37.2472,40
37.2658,48
37.2844,47
37.3030,41
37.3215,52
37.3401,43
37.3587,37
37.3773,42
37.3958,57
37.4144,70
37.4330,68
37.4516,80
37.4701,69
37.4887,68
37.5073,53
37.5259,64
37.5445,55
37.5630,52
37.5816,48
37.6002,50
37.6188,38
37.6373,41
37.6559,50
37.6745,45
37.6931,47
37.7116,43
37.7302,52
37.7488,59
37.7674,51
37.7859,42
37.8045,39
37.8231,45
37.8417,47
37.8602,44
37.8788,44
37.8974,44
37.9160,55
37.9345,42
37.9531,40
37.9717,38
37.9903,46
38.0088,48
38.0274,49
38.0460,49
38.0646,52
38.0831,26
38.1017,40
38.1203,53
38.1389,37
38.1574,42
38.1760,44
38.1946,46
38.2132,44
38.2317,45
38.2503,39
38.2689,42
38.2875,48
38.3061,51
38.3246,41
38.3432,37
38.3618,27
38.3804,36
38.3989,44
38.4175,41
38.4361,37
38.4547,38
38.4732,44
38.4918,26
38.5104,34
38.5290,40
38.5475,43
38.5661,45
38.5847,46
38.6033,31
38.6218,42
38.6404,37
38.6590,58
38.6776,40
38.6961,51
38.7147,34
38.7333,34
38.7519,34
38.7704,42
38.7890,39
38.8076,56
38.8262,49
38.8447,43
38.8633,37
38.8819,46
38.9005,43
38.9190,41
38.9376,35
38.9562,42
38.9748,42
38.9933,51
39.0119,40
39.0305,46
39.0491,42
39.0677,37
39.0862,37
39.1048,37
39.1234,50
39.1420,44
39.1605,33
39.1791,38
39.1977,37
39.2163,36
39.2348,39
39.2534,34
39.2720,36
39.2906,37
39.3091,34
39.3277,47
39.3463,41
39.3649,42
39.3834,29
39.4020,37
39.4206,48
39.4392,40
39.4577,35
39.4763,49
39.4949,40
39.5135,39
39.5320,32
39.5506,34
39.5692,44
39.5878,36
39.6063,42
39.6249,29
39.6435,40
39.6621,37
39.6806,34
39.6992,48
39.7178,35
39.7364,35
39.7549,36
39.7735,32
39.7921,47
39.8107,36
39.8293,35
39.8478,33
39.8664,29
39.8850,43
39.9036,40
39.9221,42
39.9407,48
39.9593,42
39.9779,43
39.9964,48
40.0150,40
40.0336,31
40.0522,40
40.0707,26
40.0893,36
40.1079,29
40.1265,34
40.1450,47
40.1636,44
40.1822,36
40.2008,32
40.2193,32
40.2379,43
40.2565,36
40.2751,50
40.2936,42
40.3122,35
40.3308,33
40.3494,52
40.3679,35
40.3865,45
40.4051,32
40.4237,28
40.4422,40
40.4608,31
40.4794,29
40.4980,44
40.5165,30
40.5351,51
40.5537,39
40.5723,38
40.5908,41
40.6094,36
40.6280,40
40.6466,35
40.6652,43
40.6837,43
40.7023,43
40.7209,26
40.7395,44
40.7580,35
40.7766,33
40.7952,44
40.8138,37
40.8323,35
40.8509,36
40.8695,47
40.8881,39
40.9066,35
40.9252,26
40.9438,30
40.9624,42
40.9809,39
40.9995,42
41.0181,36
41.0367,44
41.0552,49
41.0738,36
41.0924,37
41.1110,31
41.1295,39
41.1481,32
41.1667,35
41.1853,42
41.2038,40
41.2224,36
41.2410,30
41.2596,33
41.2781,48
41.2967,50
41.3153,40
41.3339,28
41.3524,29
41.3710,32
41.3896,33
41.4082,46
41.4268,37
41.4453,35
41.4639,31
41.4825,43
41.5011,28
41.5196,51
41.5382,29
41.5568,38
41.5754,40
41.5939,45
41.6125,47
41.6311,34
41.6497,31
41.6682,40
41.6868,33
41.7054,47
41.7240,38
41.7425,45
41.7611,32
41.7797,26
41.7983,40
41.8168,39
41.8354,28
41.8540,42
41.8726,36
41.8911,33
41.9097,21
41.9283,41
41.9469,42
41.9654,43
41.9840,36
42.0026,39
42.0212,39
42.0397,25
42.0583,36
42.0769,31
42.0955,41
42.1140,41
42.1326,33
42.1512,30
42.1698,33
42.1884,39
42.2069,24
42.2255,30
42.2441,41
42.2627,38
42.2812,40
42.2998,27
42.3184,38
42.3370,40
42.3555,47
42.3741,33
42.3927,49
42.4113,34
42.4298,48
42.4484,46
42.4670,37
42.4856,43
42.5041,44
42.5227,34
42.5413,34
42.5599,48
42.5784,42
42.5970,31
42.6156,52
42.6342,34
42.6527,27
42.6713,38
42.6899,27
42.7085,43
42.7270,40
42.7456,38
42.7642,29
42.7828,31
42.8013,33
42.8199,39
42.8385,34
42.8571,28
42.8756,37
42.8942,30
42.9128,38
42.9314,36
42.9500,36
42.9685,40
42.9871,41
43.0057,27
43.0243,38
43.0428,56
43.0614,31
43.0800,42
43.0986,37
43.1171,45
43.1357,44
43.1543,35
43.1729,41
43.1914,46
43.2100,45
43.2286,50
43.2472,46
43.2657,41
43.2843,33
43.3029,38
43.3215,45
43.3400,38
43.3586,48
43.3772,40
43.3958,47
43.4143,33
43.4329,45
43.4515,52
43.4701,47
43.4886,71
43.5072,67
43.5258,50
43.5444,54
43.5629,47
43.5815,50
43.6001,52
43.6187,53
43.6372,40
43.6558,40
43.6744,36
43.6930,38
43.7116,41
43.7301,36
43.7487,37
43.7673,36
43.7859,40
43.8044,33
43.8230,42
43.8416,41
43.8602,41
43.8787,29
43.8973,35
43.9159,32
43.9345,42
43.9530,42
43.9716,37
43.9902,37
44.0088,36
44.0273,30
44.0459,36
44.0645,34
44.0831,37
44.1016,35
44.1202,45
44.1388,36
44.1574,37
44.1759,32
44.1945,34
44.2131,33
44.2317,36
44.2502,39
44.2688,30
44.2874,37
44.3060,35
44.3245,35
44.3431,40
44.3617,44
44.3803,39
44.3988,42
44.4174,27
44.4360,40
44.4546,34
44.4732,25
44.4917,38
44.5103,28
44.5289,36
44.5475,32
44.5660,32
44.5846,37
44.6032,40
44.6218,51
44.6403,38
44.6589,32
44.6775,41
44.6961,38
44.7146,33
44.7332,37
44.7518,41
44.7704,38
44.7889,49
44.8075,32
44.8261,46
44.8447,34
44.8632,37
44.8818,49
44.9004,42
44.9190,41
44.9375,30
44.9561,36
44.9747,28
44.9933,26
45.0118,34
45.0304,37
45.0490,29
45.0676,34
45.0861,44
45.1047,41
45.1233,46
45.1419,33
45.1604,38
45.1790,35
45.1976,23
45.2162,38
45.2347,43
45.2533,28
45.2719,44
45.2905,28
45.3091,32
45.3276,38
45.3462,37
45.3648,32
45.3834,29
45.4019,54
45.4205,31
45.4391,42
45.4577,32
45.4762,31
45.4948,33
45.5134,36
45.5320,32
45.5505,45
45.5691,38
45.5877,32
45.6063,38
45.6248,33
45.6434,38
45.6620,25
45.6806,28
45.6991,26
45.7177,29
45.7363,28
45.7549,34
45.7734,26
45.7920,27
45.8106,44
45.8292,32
45.8477,37
45.8663,35
45.8849,25
45.9035,34
45.9220,35
45.9406,23
45.9592,35
45.9778,30
45.9963,34
46.0149,34
46.0335,54
46.0521,30
46.0707,32
46.0892,38
46.1078,41
46.1264,35
46.1450,37
46.1635,37
46.1821,31
46.2007,37
46.2193,32
46.2378,38
46.2564,41
46.2750,31
46.2936,27
46.3121,24
46.3307,27
46.3493,31
46.3679,28
46.3864,38
46.4050,40
46.4236,30
46.4422,31
46.4607,27
46.4793,35
46.4979,24
46.5165,36
46.5350,37
46.5536,29
46.5722,35
46.5908,36
46.6093,40
46.6279,22
46.6465,37
46.6651,32
46.6836,30
46.7022,38
46.7208,38
46.7394,36
46.7579,35
46.7765,33
46.7951,37
46.8137,35
46.8323,34
46.8508,28
46.8694,29
46.8880,47
46.9066,36
46.9251,38
46.9437,36
46.9623,30
46.9809,31
46.9994,33
47.0180,29
47.0366,35
47.0552,26
47.0737,32
47.0923,25
47.1109,48
47.1295,39
47.1480,36
47.1666,24
47.1852,31
47.2038,35
47.2223,41
47.2409,35
47.2595,31
47.2781,30
47.2966,36
47.3152,27
47.3338,32
47.3524,28
47.3709,41
47.3895,27
47.4081,26
47.4267,29
47.4452,26
47.4638,21
47.4824,26
47.5010,29
47.5195,37
47.5381,36
47.5567,28
47.5753,38
47.5939,30
47.6124,37
47.6310,31
47.6496,35
47.6682,28
47.6867,29
47.7053,41
47.7239,30
47.7425,37
47.7610,21
47.7796,42
47.7982,31
47.8168,33
47.8353,35
47.8539,36
47.8725,35
47.8911,32
47.9096,27
47.9282,20
47.9468,25
47.9654,32
47.9839,36
48.0025,41
48.0211,30
48.0397,36
48.0582,32
48.0768,38
48.0954,24
48.1140,39
48.1325,26
48.1511,30
48.1697,36
48.1883,34
48.2068,38
48.2254,34
48.2440,41
48.2626,34
48.2811,23
48.2997,43
48.3183,23
48.3369,34
48.3555,33
48.3740,25
48.3926,29
48.4112,34
48.4298,26
48.4483,31
48.4669,39
48.4855,37
48.5041,34
48.5226,30
48.5412,34
48.5598,31
48.5784,32
48.5969,32
48.6155,33
48.6341,29
48.6527,34
48.6712,31
48.6898,31
48.7084,27
48.7270,33
48.7455,38
48.7641,37
48.7827,20
48.8013,30
48.8198,25
48.8384,27
48.8570,31
48.8756,29
48.8941,43
48.9127,52
48.9313,39
48.9499,61
48.9684,62
48.9870,54
49.0056,45
49.0242,36
49.0427,43
49.0613,47
49.0799,51
49.0985,53
49.1171,47
49.1356,34
49.1542,36
49.1728,39
49.1914,39
49.2099,24
49.2285,31
49.2471,36
49.2657,35
49.2842,34
49.3028,18
49.3214,26
49.3400,34
49.3585,31
49.3771,29
49.3957,40
49.4143,22
49.4328,26
49.4514,23
49.4700,33
49.4886,37
49.5071,25
49.5257,24
49.5443,25
49.5629,28
49.5814,30
49.6000,48
49.6186,33
49.6372,23
49.6557,32
49.6743,32
49.6929,32
49.7115,25
49.7300,35
49.7486,27
49.7672,15
49.7858,29
49.8043,29
49.8229,35
49.8415,34
49.8601,33
49.8786,37
49.8972,37
49.9158,25
49.9344,39
49.9530,25
49.9715,34
49.9901,32
50.0087,33
50.0273,26
50.0458,36
50.0644,20
50.0830,24
50.1016,26
50.1201,32
50.1387,33
50.1573,38
50.1759,28
50.1944,27
50.2130,21
50.2316,37
50.2502,31
50.2687,31
50.2873,33
50.3059,30
50.3245,22
50.3430,36
50.3616,31
50.3802,27
50.3988,26
50.4173,32
50.4359,35
50.4545,21
50.4731,25
50.4916,25
50.5102,29
50.5288,34
50.5474,24
50.5659,23
50.5845,26
50.6031,28
50.6217,39
50.6402,31
50.6588,33
50.6774,43
50.6960,29
50.7146,31
50.7331,29
50.7517,35
50.7703,29
50.7889,28
50.8074,24
50.8260,32
50.8446,34
50.8632,33
50.8817,37
50.9003,26
50.9189,32
50.9375,33
50.9560,21
50.9746,29
50.9932,18
51.0118,25
51.0303,29
51.0489,23
51.0675,32
51.0861,31
51.1046,29
51.1232,20
51.1418,28
51.1604,36
51.1789,28
51.1975,32
51.2161,33
51.2347,26
51.2532,41
51.2718,33
51.2904,34
51.3090,26
51.3275,30
51.3461,31
51.3647,31
51.3833,34
51.4018,36
51.4204,38
51.4390,29
51.4576,33
51.4762,23
51.4947,31
51.5133,39
51.5319,27
51.5505,42
51.5690,37
51.5876,32
51.6062,38
51.6248,32
51.6433,27
51.6619,25
51.6805,30
51.6991,25
51.7176,23
51.7362,28
51.7548,34
51.7734,33
51.7919,33
51.8105,37
51.8291,31
51.8477,34
51.8662,41
51.8848,31
51.9034,38
51.9220,32
51.9405,26
51.9591,28
51.9777,33
51.9963,25
52.0148,37
52.0334,21
52.0520,27
52.0706,28
52.0891,41
52.1077,28
52.1263,32
52.1449,32
52.1634,20
52.1820,31
52.2006,30
52.2192,24
52.2378,32
52.2563,22
52.2749,37
52.2935,27
52.3121,29
52.3306,27
52.3492,25
52.3678,37
52.3864,32
52.4049,29
52.4235,28
52.4421,35
52.4607,29
52.4792,25
52.4978,34
52.5164,19
52.5350,30
52.5535,30
52.5721,31
52.5907,27
52.6093,33
52.6278,31
52.6464,29
52.6650,34
52.6836,25
52.7021,47
52.7207,31
52.7393,29
52.7579,26
52.7764,32
52.7950,29
52.8136,30
52.8322,25
52.8507,31
52.8693,26
52.8879,36
52.9065,38
52.9250,24
52.9436,22
52.9622,31
52.9808,22
52.9994,34
53.0179,32
53.0365,41
53.0551,31
53.0737,31
53.0922,33
53.1108,26
53.1294,26
53.1480,33
53.1665,21
53.1851,31
53.2037,17
53.2223,25
53.2408,28
53.2594,29
53.2780,19
53.2966,32
53.3151,31
53.3337,28
53.3523,31
53.3709,30
53.3894,31
53.4080,43
53.4266,27
53.4452,32
53.4637,24
53.4823,20
53.5009,32
53.5195,19
53.5380,25
53.5566,29
53.5752,26
53.5938,21
53.6123,34
53.6309,24
53.6495,31
53.6681,23
53.6866,34
53.7052,27
53.7238,34
53.7424,26
53.7610,34
53.7795,25
53.7981,25
53.8167,23
53.8353,38
53.8538,41
53.8724,25
53.8910,28
53.9096,30
53.9281,37
53.9467,28
53.9653,40
53.9839,46
54.0024,42
54.0210,35
54.0396,34
54.0582,30
54.0767,31
54.0953,29
54.1139,30
54.1325,34
54.1510,32
54.1696,38
54.1882,31
54.2068,38
54.2253,29
54.2439,33
54.2625,37
54.2811,30
54.2996,29
54.3182,24
54.3368,32
54.3554,32
54.3739,21
54.3925,33
54.4111,29
54.4297,34
54.4482,33
54.4668,31
54.4854,34
54.5040,26
54.5225,31
54.5411,22
54.5597,32
54.5783,34
54.5969,30
54.6154,29
54.6340,38
54.6526,30
54.6712,33
54.6897,17
54.7083,30
54.7269,27
54.7455,33
54.7640,27
54.7826,22
54.8012,15
54.8198,21
54.8383,36
54.8569,18
54.8755,28
54.8941,27
54.9126,31
54.9312,21
54.9498,17
54.9684,26
54.9869,22
55.0055,19
55.0241,27
55.0427,22
55.0612,29
55.0798,42
55.0984,25
55.1170,32
55.1355,33
55.1541,23
55.1727,26
55.1913,23
55.2098,24
55.2284,32
55.2470,25
55.2656,30
55.2841,27
55.3027,31
55.3213,20
55.3399,28
55.3585,30
55.3770,25
55.3956,31
55.4142,27
55.4328,28
55.4513,29
55.4699,28
55.4885,25
55.5071,28
55.5256,31
55.5442,22
55.5628,33
55.5814,31
55.5999,23
55.6185,30
55.6371,29
55.6557,20
55.6742,27
55.6928,26
55.7114,24
55.7300,26
55.7485,29
55.7671,28
55.7857,33
55.8043,31
55.8228,22
55.8414,31
55.8600,32
55.8786,27
55.8971,28
55.9157,26
55.9343,35
55.9529,23
55.9714,19
55.9900,32
56.0086,24
56.0272,25
56.0457,24
56.0643,26
56.0829,29
56.1015,26
56.1201,21
56.1386,23
56.1572,29
56.1758,29
56.1944,21
56.2129,32
56.2315,34
56.2501,29
56.2687,37
56.2872,28
56.3058,41
56.3244,28
56.3430,30
56.3615,36
56.3801,20
56.3987,33
56.4173,30
56.4358,25
56.4544,28
56.4730,36
56.4916,24
56.5101,36
56.5287,32
56.5473,33
56.5659,30
56.5844,30
56.6030,22
56.6216,37
56.6402,38
56.6587,28
56.6773,35
56.6959,28
56.7145,28
56.7330,19
56.7516,32
56.7702,29
56.7888,31
56.8073,19
56.8259,21
56.8445,22
56.8631,33
56.8817,22
56.9002,34
56.9188,21
56.9374,27
56.9560,29
56.9745,33
56.9931,24
57.0117,32
57.0303,20
57.0488,24
57.0674,31
57.0860,22
57.1046,25
57.1231,28
57.1417,28
57.1603,22
57.1789,34
57.1974,26
57.2160,33
57.2346,29
57.2532,33
57.2717,26
57.2903,31
57.3089,22
57.3275,29
57.3460,22
57.3646,25
57.3832,28
57.4018,24
57.4203,17
57.4389,20
57.4575,29
57.4761,25
57.4946,31
57.5132,27
57.5318,29
57.5504,25
57.5689,28
57.5875,32
57.6061,23
57.6247,27
57.6433,33
57.6618,22
57.6804,28
57.6990,31
57.7176,27
57.7361,21
57.7547,23
57.7733,27
57.7919,36
57.8104,25
57.8290,26
57.8476,34
57.8662,19
57.8847,25
57.9033,20
57.9219,25
57.9405,36
57.9590,23
57.9776,25
57.9962,32
58.0148,24
58.0333,21
58.0519,24
58.0705,26
58.0891,29
58.1076,23
58.1262,26
58.1448,28
58.1634,19
58.1819,33
58.2005,19
58.2191,34
58.2377,44
58.2562,24
58.2748,20
58.2934,23
58.3120,31
58.3305,29
58.3491,26
58.3677,19
58.3863,32
58.4049,32
58.4234,30
58.4420,33
58.4606,28
58.4792,15
58.4977,33
58.5163,30
58.5349,26
58.5535,38
58.5720,25
58.5906,29
58.6092,21
58.6278,25
58.6463,22
58.6649,33
58.6835,32
58.7021,27
58.7206,23
58.7392,30
58.7578,22
58.7764,21
58.7949,33
58.8135,32
58.8321,21
58.8507,24
58.8692,29
58.8878,32
58.9064,29
58.9250,28
58.9435,31
58.9621,27
58.9807,31
58.9993,17
59.0178,22
59.0364,29
59.0550,34
59.0736,22
59.0921,34
59.1107,22
59.1293,33
59.1479,28
59.1664,21
59.1850,21
59.2036,26
59.2222,28
59.2408,17
59.2593,21
59.2779,20
59.2965,26
59.3151,21
59.3336,28
59.3522,26
59.3708,22
59.3894,18
59.4079,24
59.4265,28
59.4451,26
59.4637,20
59.4822,36
59.5008,37
59.5194,26
59.5380,25
59.5565,27
59.5751,30
59.5937,25
59.6123,24
59.6308,22
59.6494,31
59.6680,27
59.6866,29
59.7051,29
59.7237,19
59.7423,16
59.7609,24
59.7794,27
59.7980,22
59.8166,24
59.8352,30
59.8537,32
59.8723,31
59.8909,37
59.9095,32
59.9280,38
59.9466,26
59.9652,23
59.9838,30
60.0024,28
