;,2THETA,
5.0000,114
5.0186,97
5.0372,89
5.0557,82
5.0743,76
5.0929,99
5.1115,98
5.1300,77
5.1486,94
5.1672,84
5.1858,94
5.2043,86
5.2229,82
5.2415,86
5.2601,85
5.2786,75
5.2972,78
5.3158,91
5.3344,67
5.3529,73
5.3715,106
5.3901,93
5.4087,82
5.4272,79
5.4458,82
5.4644,86
5.4830,86
5.5015,84
5.5201,75
5.5387,93
5.5573,76
5.5758,88
5.5944,88
5.6130,89
5.6316,85
5.6501,51
5.6687,81
5.6873,58
5.7059,76
5.7244,82
5.7430,79
5.7616,74
5.7802,57
5.7988,60
5.8173,78
5.8359,86
5.8545,81
5.8731,71
5.8916,74
5.9102,69
5.9288,59
5.9474,95
5.9659,68
5.9845,91
6.0031,80
6.0217,65
6.0402,78
6.0588,98
6.0774,78
6.0960,72
6.1145,66
6.1331,87
6.1517,74
6.1703,64
6.1888,76
6.2074,62
6.2260,85
6.2446,67
6.2631,72
6.2817,64
6.3003,73
6.3189,59
6.3374,79
6.3560,64
6.3746,67
6.3932,67
6.4117,63
6.4303,72
6.4489,37
6.4675,60
6.4860,62
6.5046,66
6.5232,62
6.5418,74
6.5604,80
6.5789,71
6.5975,52
6.6161,54
6.6347,70
6.6532,61
6.6718,61
6.6904,60
6.7090,65
6.7275,62
6.7461,50
6.7647,54
6.7833,54
6.8018,60
6.8204,63
6.8390,48
6.8576,67
6.8761,51
6.8947,67
6.9133,61
6.9319,57
6.9504,52
6.9690,81
6.9876,67
7.0062,60
7.0247,51
7.0433,61
7.0619,63
7.0805,52
7.0990,56
7.1176,69
7.1362,61
7.1548,69
7.1733,63
7.1919,70
7.2105,67
7.2291,58
7.2476,51
7.2662,53
7.2848,58
7.3034,66
7.3220,59
7.3405,59
7.3591,56
7.3777,47
7.3963,42
7.4148,47
7.4334,49
7.4520,63
7.4706,70
7.4891,62
7.5077,49
7.5263,66
7.5449,61
7.5634,54
7.5820,64
7.6006,62
7.6192,78
7.6377,70
7.6563,53
7.6749,48
7.6935,54
7.7120,62
7.7306,71
7.7492,64
7.7678,63
7.7863,57
7.8049,57
7.8235,69
7.8421,69
7.8606,78
7.8792,79
7.8978,70
7.9164,69
7.9349,69
7.9535,74
7.9721,74
7.9907,73
8.0092,60
8.0278,67
8.0464,83
8.0650,59
8.0835,71
8.1021,70
8.1207,54
8.1393,68
8.1579,72
8.1764,69
8.1950,61
8.2136,59
8.2322,72
8.2507,71
8.2693,74
8.2879,69
8.3065,76
8.3250,72
8.3436,67
8.3622,71
8.3808,85
8.3993,77
8.4179,68
8.4365,70
8.4551,58
8.4736,69
8.4922,72
8.5108,62
8.5294,64
8.5479,76
8.5665,80
8.5851,72
8.6037,76
8.6222,82
8.6408,78
8.6594,60
8.6780,69
8.6965,77
8.7151,86
8.7337,80
8.7523,65
8.7708,78
8.7894,91
8.8080,63
8.8266,89
8.8451,75
8.8637,91
8.8823,80
8.9009,89
8.9195,72
8.9380,72
8.9566,90
8.9752,92
8.9938,74
9.0123,62
9.0309,95
9.0495,89
9.0681,81
9.0866,89
9.1052,63
9.1238,76
9.1424,79
9.1609,73
9.1795,86
9.1981,74
9.2167,71
9.2352,79
9.2538,72
9.2724,84
9.2910,71
9.3095,67
9.3281,95
9.3467,80
9.3653,86
9.3838,84
9.4024,83
9.4210,60
9.4396,86
9.4581,80
9.4767,81
9.4953,77
9.5139,87
9.5324,77
9.5510,80
9.5696,83
9.5882,64
9.6067,98
9.6253,86
9.6439,80
9.6625,78
9.6811,69
9.6996,86
9.7182,97
9.7368,86
9.7554,79
9.7739,88
9.7925,93
9.8111,69
9.8297,73
9.8482,78
9.8668,78
9.8854,86
9.9040,94
9.9225,100
9.9411,63
9.9597,72
9.9783,92
9.9968,88
10.0154,74
10.0340,99
10.0526,88
10.0711,83
10.0897,80
10.1083,97
10.1269,86
10.1454,79
10.1640,87
10.1826,96
10.2012,105
10.2197,101
10.2383,91
10.2569,97
10.2755,87
10.2940,80
10.3126,90
10.3312,86
10.3498,94
10.3683,96
10.3869,82
10.4055,85
10.4241,90
10.4427,89
10.4612,84
10.4798,91
10.4984,106
10.5170,77
10.5355,95
10.5541,102
10.5727,78
10.5913,71
10.6098,74
10.6284,87
10.6470,116
10.6656,99
10.6841,89
10.7027,98
10.7213,98
10.7399,95
10.7584,92
10.7770,75
10.7956,80
10.8142,91
10.8327,75
10.8513,100
10.8699,80
10.8885,80
10.9070,97
10.9256,93
10.9442,90
10.9628,93
10.9813,84
10.9999,73
11.0185,98
11.0371,101
11.0556,96
11.0742,72
11.0928,118
11.1114,99
11.1299,99
11.1485,96
11.1671,80
11.1857,76
11.2043,95
11.2228,87
11.2414,88
11.2600,78
11.2786,81
11.2971,80
11.3157,87
11.3343,94
11.3529,93
11.3714,96
11.3900,85
11.4086,86
11.4272,91
11.4457,86
11.4643,102
11.4829,98
11.5015,78
11.5200,89
11.5386,103
11.5572,78
11.5758,97
11.5943,90
11.6129,76
11.6315,102
11.6501,82
11.6686,85
11.6872,85
11.7058,85
11.7244,106
11.7429,67
11.7615,73
11.7801,79
11.7987,87
11.8172,82
11.8358,85
11.8544,74
11.8730,89
11.8915,85
11.9101,94
11.9287,81
11.9473,79
11.9659,83
11.9844,99
12.0030,93
12.0216,85
12.0402,81
12.0587,82
12.0773,91
12.0959,83
12.1145,85
12.1330,103
12.1516,103
12.1702,71
12.1888,72
12.2073,82
12.2259,80
12.2445,98
12.2631,70
12.2816,99
12.3002,73
12.3188,78
12.3374,102
12.3559,87
12.3745,73
12.3931,86
12.4117,76
12.4302,73
12.4488,91
12.4674,75
12.4860,80
12.5045,70
12.5231,94
12.5417,77
12.5603,90
12.5788,102
12.5974,92
12.6160,83
12.6346,92
12.6531,72
12.6717,87
12.6903,75
12.7089,77
12.7274,84
12.7460,68
12.7646,77
12.7832,84
12.8018,81
12.8203,82
12.8389,70
12.8575,74
12.8761,74
12.8946,83
12.9132,84
12.9318,89
12.9504,80
12.9689,78
12.9875,75
13.0061,85
13.0247,55
13.0432,81
13.0618,63
13.0804,84
13.0990,68
13.1175,68
13.1361,59
13.1547,59
13.1733,76
13.1918,72
13.2104,83
13.2290,84
13.2476,70
13.2661,76
13.2847,88
13.3033,77
13.3219,79
13.3404,80
13.3590,60
13.3776,83
13.3962,73
13.4147,89
13.4333,78
13.4519,72
13.4705,66
13.4890,83
13.5076,84
13.5262,48
13.5448,86
13.5634,74
13.5819,74
13.6005,77
13.6191,75
13.6377,64
13.6562,80
13.6748,66
13.6934,75
13.7120,65
13.7305,63
13.7491,89
13.7677,80
13.7863,60
13.8048,69
13.8234,76
13.8420,64
13.8606,79
13.8791,81
13.8977,70
13.9163,61
13.9349,61
13.9534,59
13.9720,67
13.9906,84
14.0092,75
14.0277,64
14.0463,68
14.0649,65
14.0835,70
14.1020,74
14.1206,73
14.1392,63
14.1578,67
14.1763,65
14.1949,77
14.2135,73
14.2321,53
14.2506,65
14.2692,59
14.2878,62
14.3064,75
14.3250,56
14.3435,74
14.3621,59
14.3807,67
14.3993,64
14.4178,64
14.4364,63
14.4550,60
14.4736,65
14.4921,63
14.5107,89
14.5293,73
14.5479,63
14.5664,61
14.5850,60
14.6036,60
14.6222,51
14.6407,59
14.6593,54
14.6779,74
14.6965,82
14.7150,72
14.7336,55
14.7522,58
14.7708,61
14.7893,55
14.8079,66
14.8265,61
14.8451,52
14.8636,54
14.8822,59
14.9008,43
14.9194,75
14.9379,70
14.9565,58
14.9751,61
14.9937,73
15.0122,63
15.0308,74
15.0494,68
15.0680,57
15.0866,63
15.1051,75
15.1237,62
15.1423,70
15.1609,63
15.1794,51
15.1980,46
15.2166,60
15.2352,55
15.2537,62
15.2723,69
15.2909,54
15.3095,62
15.3280,60
15.3466,58
15.3652,56
15.3838,65
15.4023,55
15.4209,56
15.4395,68
15.4581,58
15.4766,59
15.4952,55
15.5138,70
15.5324,69
15.5509,83
15.5695,57
15.5881,79
15.6067,59
15.6252,53
15.6438,56
15.6624,63
15.6810,49
15.6995,57
15.7181,53
15.7367,47
15.7553,51
15.7738,51
15.7924,63
15.8110,57
15.8296,68
15.8482,57
15.8667,54
15.8853,71
15.9039,73
15.9225,57
15.9410,62
15.9596,69
15.9782,54
15.9968,57
16.0153,65
16.0339,71
16.0525,67
16.0711,61
16.0896,62
16.1082,58
16.1268,65
16.1454,55
16.1639,58
16.1825,48
16.2011,53
16.2197,65
16.2382,64
16.2568,42
16.2754,49
16.2940,76
16.3125,68
16.3311,63
16.3497,47
16.3683,52
16.3868,52
16.4054,56
16.4240,57
16.4426,56
16.4611,52
16.4797,61
16.4983,62
16.5169,49
16.5354,56
16.5540,58
16.5726,40
16.5912,55
16.6097,60
16.6283,61
16.6469,61
16.6655,66
16.6841,54
16.7026,66
16.7212,60
16.7398,66
16.7584,86
16.7769,56
16.7955,54
16.8141,47
16.8327,74
16.8512,66
16.8698,60
16.8884,84
16.9070,44
16.9255,56
16.9441,54
16.9627,68
16.9813,54
16.9998,44
17.0184,50
17.0370,58
17.0556,56
17.0741,62
17.0927,47
17.1113,72
17.1299,69
17.1484,63
17.1670,51
17.1856,53
17.2042,57
17.2227,49
17.2413,66
17.2599,60
17.2785,62
17.2970,65
17.3156,60
17.3342,72
17.3528,64
17.3713,57
17.3899,64
17.4085,59
17.4271,74
17.4457,72
17.4642,75
17.4828,58
17.5014,62
17.5200,61
17.5385,67
17.5571,66
17.5757,70
17.5943,65
17.6128,69
17.6314,58
17.6500,55
17.6686,49
17.6871,59
17.7057,45
17.7243,54
17.7429,70
17.7614,70
17.7800,57
17.7986,59
17.8172,59
17.8357,76
17.8543,45
17.8729,58
17.8915,52
17.9100,48
17.9286,66
17.9472,55
17.9658,57
17.9843,49
18.0029,62
18.0215,57
18.0401,59
18.0586,73
18.0772,50
18.0958,51
18.1144,63
18.1329,53
18.1515,55
18.1701,64
18.1887,56
18.2073,65
18.2258,61
18.2444,65
18.2630,65
18.2816,57
18.3001,75
18.3187,52
18.3373,62
18.3559,67
18.3744,59
18.3930,56
18.4116,71
18.4302,60
18.4487,69
18.4673,61
18.4859,54
18.5045,67
18.5230,73
18.5416,66
18.5602,60
18.5788,75
18.5973,68
18.6159,55
18.6345,57
18.6531,68
18.6716,65
18.6902,66
18.7088,75
18.7274,66
18.7459,57
18.7645,61
18.7831,73
18.8017,49
18.8202,58
18.8388,68
18.8574,71
18.8760,61
18.8945,62
18.9131,67
18.9317,52
18.9503,65
18.9689,74
18.9874,59
19.0060,45
19.0246,68
19.0432,68
19.0617,49
19.0803,57
19.0989,69
19.1175,62
19.1360,67
19.1546,80
19.1732,65
19.1918,73
19.2103,70
19.2289,64
19.2475,57
19.2661,74
19.2846,59
19.3032,54
19.3218,62
19.3404,63
19.3589,65
19.3775,64
19.3961,72
19.4147,77
19.4332,75
19.4518,62
19.4704,68
19.4890,53
19.5075,58
19.5261,62
19.5447,55
19.5633,60
19.5818,69
19.6004,72
19.6190,61
19.6376,54
19.6561,60
19.6747,64
19.6933,76
19.7119,64
19.7305,82
19.7490,77
19.7676,61
19.7862,61
19.8048,63
19.8233,76
19.8419,68
19.8605,67
19.8791,53
19.8976,72
19.9162,49
19.9348,62
19.9534,75
19.9719,64
19.9905,77
20.0091,60
20.0277,62
20.0462,71
20.0648,54
20.0834,77
20.1020,60
20.1205,64
20.1391,58
20.1577,52
20.1763,81
20.1948,72
20.2134,73
20.2320,62
20.2506,85
20.2691,64
20.2877,64
20.3063,68
20.3249,56
20.3434,66
20.3620,63
20.3806,64
20.3992,69
20.4177,73
20.4363,82
20.4549,69
20.4735,63
20.4921,78
20.5106,74
20.5292,65
20.5478,66
20.5664,58
20.5849,72
20.6035,59
20.6221,72
20.6407,63
20.6592,69
20.6778,65
20.6964,82
20.7150,66
20.7335,78
20.7521,71
20.7707,70
20.7893,62
20.8078,73
20.8264,61
20.8450,62
20.8636,59
20.8821,71
20.9007,68
20.9193,55
20.9379,70
20.9564,63
20.9750,78
20.9936,64
21.0122,69
21.0307,60
21.0493,55
21.0679,71
21.0865,75
21.1050,67
21.1236,77
21.1422,95
21.1608,94
21.1793,79
21.1979,109
21.2165,139
21.2351,137
21.2537,136
21.2722,107
21.2908,110
21.3094,125
21.3280,138
21.3465,176
21.3651,210
21.3837,152
21.4023,149
21.4208,132
21.4394,97
21.4580,85
21.4766,60
21.4951,83
21.5137,66
21.5323,82
21.5509,73
21.5694,89
21.5880,90
21.6066,69
21.6252,83
21.6437,89
21.6623,72
21.6809,70
21.6995,68
21.7180,54
21.7366,80
21.7552,59
21.7738,64
21.7923,64
21.8109,81
21.8295,66
21.8481,73
21.8666,74
21.8852,73
21.9038,71
21.9224,69
21.9409,78
21.9595,79
21.9781,76
21.9967,69
22.0152,63
22.0338,73
22.0524,70
22.0710,67
22.0896,57
22.1081,71
22.1267,88
22.1453,78
22.1639,66
22.1824,75
22.2010,71
22.2196,76
22.2382,57
22.2567,72
22.2753,73
22.2939,76
22.3125,64
22.3310,70
22.3496,64
22.3682,80
22.3868,75
22.4053,79
22.4239,88
22.4425,89
22.4611,60
22.4796,76
22.4982,78
22.5168,77
22.5354,75
22.5539,80
22.5725,81
22.5911,83
22.6097,69
22.6282,70
22.6468,81
22.6654,70
22.6840,70
22.7025,70
22.7211,78
22.7397,68
22.7583,74
22.7768,66
22.7954,72
22.8140,70
22.8326,79
22.8512,63
22.8697,73
22.8883,82
22.9069,81
22.9255,81
22.9440,65
22.9626,64
22.9812,84
22.9998,83
23.0183,73
23.0369,73
23.0555,69
23.0741,73
23.0926,57
23.1112,67
23.1298,67
23.1484,73
23.1669,74
23.1855,70
23.2041,77
23.2227,78
23.2412,80
23.2598,78
23.2784,72
23.2970,71
23.3155,82
23.3341,67
23.3527,71
23.3713,84
23.3898,68
23.4084,77
23.4270,73
23.4456,77
23.4641,82
23.4827,85
23.5013,70
23.5199,73
23.5384,69
23.5570,73
23.5756,72
23.5942,67
23.6128,69
23.6313,76
23.6499,71
23.6685,91
23.6871,78
23.7056,98
23.7242,68
23.7428,61
23.7614,60
23.7799,61
23.7985,80
23.8171,59
23.8357,75
23.8542,71
23.8728,73
23.8914,84
23.9100,72
23.9285,65
23.9471,71
23.9657,83
23.9843,85
24.0028,55
24.0214,88
24.0400,82
24.0586,82
24.0771,62
24.0957,78
24.1143,79
24.1329,65
24.1514,80
24.1700,63
24.1886,70
24.2072,83
24.2257,69
24.2443,73
24.2629,80
24.2815,78
24.3000,99
24.3186,85
24.3372,77
24.3558,85
24.3744,68
24.3929,87
24.4115,80
24.4301,75
24.4487,65
24.4672,68
24.4858,59
24.5044,80
24.5230,64
24.5415,82
24.5601,75
24.5787,69
24.5973,86
24.6158,73
24.6344,66
24.6530,74
24.6716,71
24.6901,73
24.7087,69
24.7273,65
24.7459,76
24.7644,96
24.7830,65
24.8016,82
24.8202,75
24.8387,72
24.8573,69
24.8759,71
24.8945,85
24.9130,81
24.9316,70
24.9502,71
24.9688,74
24.9873,80
25.0059,74
25.0245,67
25.0431,72
25.0616,74
25.0802,73
25.0988,62
25.1174,80
25.1360,76
25.1545,62
25.1731,67
25.1917,75
25.2103,75
25.2288,83
25.2474,64
25.2660,66
25.2846,67
25.3031,47
25.3217,64
25.3403,60
25.3589,66
25.3774,67
25.3960,66
25.4146,93
25.4332,71
25.4517,75
25.4703,62
25.4889,72
25.5075,74
25.5260,68
25.5446,73
25.5632,79
25.5818,64
25.6003,60
25.6189,66
25.6375,85
25.6561,80
25.6746,71
25.6932,78
25.7118,75
25.7304,72
25.7489,62
25.7675,70
25.7861,77
25.8047,74
25.8232,67
25.8418,67
25.8604,75
25.8790,76
25.8976,74
25.9161,76
25.9347,81
25.9533,71
25.9719,66
25.9904,70
26.0090,69
26.0276,60
26.0462,74
26.0647,71
26.0833,72
26.1019,84
26.1205,76
26.1390,83
26.1576,65
26.1762,55
26.1948,55
26.2133,73
26.2319,78
26.2505,73
26.2691,68
26.2876,80
26.3062,61
26.3248,80
26.3434,82
26.3619,71
26.3805,69
26.3991,77
26.4177,66
26.4362,74
26.4548,93
26.4734,63
26.4920,71
26.5105,75
26.5291,75
26.5477,71
26.5663,66
26.5848,70
26.6034,71
26.6220,73
26.6406,56
26.6591,64
26.6777,64
26.6963,87
26.7149,64
26.7335,88
26.7520,66
26.7706,60
26.7892,70
26.8078,61
26.8263,75
26.8449,63
26.8635,72
26.8821,79
26.9006,77
26.9192,72
26.9378,78
26.9564,91
26.9749,66
26.9935,68
27.0121,75
27.0307,80
27.0492,70
27.0678,71
27.0864,73
27.1050,86
27.1235,81
27.1421,70
27.1607,80
27.1793,71
27.1978,84
27.2164,101
27.2350,86
27.2536,81
27.2721,94
27.2907,58
27.3093,78
27.3279,73
27.3464,69
27.3650,61
27.3836,69
27.4022,74
27.4207,66
27.4393,80
27.4579,56
27.4765,68
27.4951,66
27.5136,71
27.5322,59
27.5508,72
27.5694,67
27.5879,64
27.6065,80
27.6251,75
27.6437,57
27.6622,61
27.6808,69
27.6994,76
27.7180,74
27.7365,72
27.7551,57
27.7737,68
27.7923,64
27.8108,57
27.8294,77
27.8480,61
27.8666,56
27.8851,64
27.9037,73
27.9223,60
27.9409,67
27.9594,65
27.9780,74
27.9966,56
28.0152,61
28.0337,54
28.0523,64
28.0709,64
28.0895,70
28.1080,60
28.1266,54
28.1452,59
28.1638,63
28.1823,51
28.2009,62
28.2195,58
28.2381,56
28.2567,47
28.2752,61
28.2938,67
28.3124,66
28.3310,61
28.3495,67
28.3681,55
28.3867,60
28.4053,68
28.4238,51
28.4424,67
28.4610,64
28.4796,74
28.4981,60
28.5167,70
28.5353,71
28.5539,61
28.5724,64
28.5910,66
28.6096,69
28.6282,64
28.6467,60
28.6653,55
28.6839,62
28.7025,59
28.7210,69
28.7396,60
28.7582,56
28.7768,54
28.7953,64
28.8139,60
28.8325,60
28.8511,62
28.8696,66
28.8882,70
28.9068,56
28.9254,74
28.9439,65
28.9625,53
28.9811,51
28.9997,68
29.0183,65
29.0368,47
29.0554,49
29.0740,63
29.0926,65
29.1111,60
29.1297,56
29.1483,72
29.1669,68
29.1854,59
29.2040,60
29.2226,61
29.2412,55
29.2597,62
29.2783,47
29.2969,63
29.3155,63
29.3340,58
29.3526,57
29.3712,54
29.3898,58
29.4083,67
29.4269,51
29.4455,60
29.4641,69
29.4826,57
29.5012,59
29.5198,63
29.5384,64
29.5569,69
29.5755,49
29.5941,52
29.6127,56
29.6312,53
29.6498,60
29.6684,54
29.6870,66
29.7055,52
29.7241,54
29.7427,58
29.7613,49
29.7799,47
29.7984,56
29.8170,60
29.8356,49
29.8542,73
29.8727,69
29.8913,52
29.9099,56
29.9285,58
29.9470,48
29.9656,65
29.9842,57
30.0028,57
30.0213,56
30.0399,60
30.0585,55
30.0771,53
30.0956,58
30.1142,62
30.1328,59
30.1514,63
30.1699,57
30.1885,59
30.2071,60
30.2257,46
30.2442,63
30.2628,57
30.2814,62
30.3000,62
30.3185,60
30.3371,87
30.3557,85
30.3743,128
30.3928,130
30.4114,104
30.4300,65
30.4486,80
30.4671,86
30.4857,78
30.5043,67
30.5229,57
30.5415,57
30.5600,74
30.5786,63
30.5972,50
30.6158,42
30.6343,59
30.6529,59
30.6715,67
30.6901,71
30.7086,54
30.7272,65
30.7458,33
30.7644,56
30.7829,57
30.8015,68
30.8201,52
30.8387,48
30.8572,67
30.8758,48
30.8944,49
30.9130,49
30.9315,42
30.9501,54
30.9687,62
30.9873,57
31.0058,68
31.0244,52
31.0430,45
31.0616,47
31.0801,51
31.0987,40
31.1173,59
31.1359,60
31.1544,37
31.1730,47
31.1916,44
31.2102,43
31.2287,47
31.2473,42
31.2659,60
31.2845,41
31.3030,58
31.3216,56
31.3402,45
31.3588,45
31.3774,59
31.3959,59
31.4145,54
31.4331,43
31.4517,62
31.4702,55
31.4888,43
31.5074,56
31.5260,37
31.5445,56
31.5631,41
31.5817,48
31.6003,66
31.6188,35
31.6374,45
31.6560,59
31.6746,56
31.6931,39
31.7117,53
31.7303,54
31.7489,59
31.7674,53
31.7860,40
31.8046,49
31.8232,45
31.8417,50
31.8603,54
31.8789,47
31.8975,44
31.9160,48
31.9346,52
31.9532,49
31.9718,43
31.9903,37
32.0089,40
32.0275,55
32.0461,50
32.0646,53
32.0832,61
32.1018,43
32.1204,51
32.1390,43
32.1575,65
32.1761,49
32.1947,44
32.2133,37
32.2318,58
32.2504,53
32.2690,50
32.2876,47
32.3061,35
32.3247,47
32.3433,54
32.3619,46
32.3804,36
32.3990,51
32.4176,45
32.4362,58
32.4547,48
32.4733,50
32.4919,55
32.5105,59
32.5290,58
32.5476,48
32.5662,55
32.5848,40
32.6033,38
32.6219,39
32.6405,44
32.6591,40
32.6776,52
32.6962,51
32.7148,55
32.7334,51
32.7519,59
32.7705,41
32.7891,38
32.8077,37
32.8262,55
32.8448,40
32.8634,58
32.8820,49
32.9006,58
32.9191,46
32.9377,58
32.9563,37
32.9749,34
32.9934,50
33.0120,46
33.0306,38
33.0492,45
33.0677,47
33.0863,31
33.1049,56
33.1235,45
33.1420,53
33.1606,46
33.1792,46
33.1978,39
33.2163,54
33.2349,43
33.2535,52
33.2721,40
33.2906,52
33.3092,45
33.3278,52
33.3464,43
33.3649,50
33.3835,35
33.4021,32
33.4207,42
33.4392,45
33.4578,36
33.4764,49
33.4950,41
33.5135,48
33.5321,51
33.5507,43
33.5693,50
33.5878,36
33.6064,46
33.6250,31
33.6436,36
33.6622,37
33.6807,41
33.6993,38
33.7179,40
33.7365,42
33.7550,43
33.7736,46
33.7922,27
33.8108,39
33.8293,40
33.8479,48
33.8665,29
33.8851,40
33.9036,40
33.9222,42
33.9408,55
33.9594,40
33.9779,33
33.9965,39
34.0151,48
34.0337,35
34.0522,46
34.0708,43
34.0894,44
34.1080,47
34.1265,43
34.1451,36
34.1637,26
34.1823,34
34.2008,47
34.2194,37
34.2380,49
34.2566,29
34.2751,43
34.2937,51
34.3123,51
34.3309,35
34.3494,46
34.3680,45
34.3866,44
34.4052,45
34.4238,48
34.4423,40
34.4609,43
34.4795,32
34.4981,45
34.5166,49
34.5352,48
34.5538,44
34.5724,36
34.5909,42
34.6095,36
34.6281,43
34.6467,61
34.6652,54
34.6838,49
34.7024,56
34.7210,44
34.7395,64
34.7581,75
34.7767,48
34.7953,63
34.8138,62
34.8324,57
34.8510,52
34.8696,45
34.8881,47
34.9067,37
34.9253,48
34.9439,31
34.9624,43
34.9810,38
34.9996,24
35.0182,40
35.0367,43
35.0553,36
35.0739,42
35.0925,41
35.1110,37
35.1296,34
35.1482,34
35.1668,42
35.1854,43
35.2039,43
35.2225,42
35.2411,43
35.2597,34
35.2782,28
35.2968,46
35.3154,40
35.3340,38
35.3525,37
35.3711,41
35.3897,34
35.4083,39
35.4268,37
35.4454,44
35.4640,35
35.4826,46
35.5011,35
35.5197,38
35.5383,44
35.5569,30
35.5754,34
35.5940,38
35.6126,39
35.6312,32
35.6497,26
35.6683,38
35.6869,29
35.7055,26
35.7240,31
35.7426,26
35.7612,36
35.7798,35
35.7983,36
35.8169,32
35.8355,45
35.8541,41
35.8726,38
35.8912,42
35.9098,32
35.9284,37
35.9469,39
35.9655,38
35.9841,33
36.0027,39
36.0213,35
36.0398,48
36.0584,40
36.0770,23
36.0956,44
36.1141,48
36.1327,36
36.1513,33
36.1699,35
36.1884,33
36.2070,27
36.2256,39
36.2442,34
36.2627,37
36.2813,35
36.2999,34
36.3185,34
36.3370,36
36.3556,24
36.3742,39
36.3928,37
36.4113,45
36.4299,31
36.4485,34
36.4671,50
36.4856,52
36.5042,39
36.5228,38
36.5414,31
36.5599,28
36.5785,34
36.5971,30
36.6157,28
36.6342,33
36.6528,33
36.6714,27
36.6900,38
36.7085,30
36.7271,48
36.7457,33
36.7643,37
36.7829,30
36.8014,28
36.8200,25
36.8386,34
36.8572,35
36.8757,28
36.8943,28
36.9129,29
36.9315,30
36.9500,36
36.9686,38
36.9872,35
37.0058,41
37.0243,32
37.0429,34
37.0615,36
37.0801,35
37.0986,37
37.1172,31
37.1358,38
37.1544,40
37.1729,26
37.1915,34
37.2101,34
37.2287,40
37.2472,34
37.2658,46
37.2844,36
37.3030,34
37.3215,26
37.3401,39
37.3587,41
37.3773,37
37.3958,39
37.4144,58
37.4330,47
37.4516,80
37.4701,42
37.4887,29
37.5073,35
37.5259,40
37.5445,45
37.5630,34
37.5816,38
37.6002,41
37.6188,31
37.6373,32
37.6559,28
37.6745,36
37.6931,28
37.7116,48
37.7302,40
37.7488,27
37.7674,37
37.7859,31
37.8045,44
37.8231,33
37.8417,27
37.8602,31
37.8788,30
37.8974,31
37.9160,33
37.9345,31
37.9531,29
37.9717,19
37.9903,31
38.0088,31
38.0274,37
38.0460,29
38.0646,21
38.0831,35
38.1017,41
38.1203,30
38.1389,27
38.1574,24
38.1760,27
38.1946,32
38.2132,32
38.2317,31
38.2503,37
38.2689,38
38.2875,29
38.3061,24
38.3246,29
38.3432,31
38.3618,37
38.3804,35
38.3989,30
38.4175,28
38.4361,23
38.4547,26
38.4732,37
38.4918,32
38.5104,40
38.5290,31
38.5475,18
38.5661,24
38.5847,26
38.6033,31
38.6218,21
38.6404,25
38.6590,34
38.6776,44
38.6961,34
38.7147,38
38.7333,19
38.7519,31
38.7704,21
38.7890,24
38.8076,39
38.8262,23
38.8447,29
38.8633,32
38.8819,33
38.9005,35
38.9190,33
38.9376,28
38.9562,33
38.9748,25
38.9933,30
39.0119,34
39.0305,33
39.0491,36
39.0677,29
39.0862,30
39.1048,33
39.1234,35
39.1420,24
39.1605,31
39.1791,23
39.1977,32
39.2163,33
39.2348,29
39.2534,37
39.2720,23
39.2906,29
39.3091,29
39.3277,34
39.3463,29
39.3649,22
39.3834,31
39.4020,47
39.4206,33
39.4392,37
39.4577,41
39.4763,32
39.4949,26
39.5135,31
39.5320,34
39.5506,32
39.5692,27
39.5878,37
39.6063,34
39.6249,26
39.6435,39
39.6621,39
39.6806,22
39.6992,21
39.7178,26
39.7364,31
39.7549,44
39.7735,28
39.7921,35
39.8107,36
39.8293,26
39.8478,18
39.8664,21
39.8850,38
39.9036,31
39.9221,31
39.9407,29
39.9593,32
39.9779,38
39.9964,40
40.0150,29
40.0336,33
40.0522,32
40.0707,36
40.0893,21
40.1079,16
40.1265,22
40.1450,31
40.1636,31
40.1822,23
40.2008,35
40.2193,27
40.2379,20
40.2565,37
40.2751,37
40.2936,28
40.3122,31
40.3308,23
40.3494,28
40.3679,28
40.3865,28
40.4051,25
40.4237,25
40.4422,34
40.4608,25
40.4794,18
40.4980,24
40.5165,35
40.5351,23
40.5537,22
40.5723,33
40.5908,20
40.6094,23
40.6280,26
40.6466,34
40.6652,30
40.6837,30
40.7023,24
40.7209,38
40.7395,41
40.7580,28
40.7766,28
40.7952,13
40.8138,30
40.8323,27
40.8509,25
40.8695,28
40.8881,23
40.9066,32
40.9252,38
40.9438,29
40.9624,24
40.9809,28
40.9995,32
41.0181,44
41.0367,31
41.0552,29
41.0738,36
41.0924,35
41.1110,28
41.1295,15
41.1481,33
41.1667,35
41.1853,33
41.2038,24
41.2224,31
41.2410,24
41.2596,29
41.2781,31
41.2967,34
41.3153,25
41.3339,33
41.3524,34
41.3710,28
41.3896,27
41.4082,35
41.4268,31
41.4453,27
41.4639,29
41.4825,15
41.5011,28
41.5196,28
41.5382,18
41.5568,32
41.5754,28
41.5939,23
41.6125,23
41.6311,23
41.6497,28
41.6682,32
41.6868,28
41.7054,26
41.7240,25
41.7425,25
41.7611,33
41.7797,33
41.7983,29
41.8168,36
41.8354,25
41.8540,16
41.8726,26
41.8911,29
41.9097,22
41.9283,23
41.9469,28
41.9654,19
41.9840,26
42.0026,25
42.0212,22
42.0397,23
42.0583,20
42.0769,21
42.0955,24
42.1140,21
42.1326,18
42.1512,31
42.1698,24
42.1884,31
42.2069,31
42.2255,31
42.2441,23
42.2627,31
42.2812,24
42.2998,33
42.3184,35
42.3370,29
42.3555,28
42.3741,28
42.3927,17
42.4113,23
42.4298,33
42.4484,22
42.4670,27
42.4856,32
42.5041,25
42.5227,25
42.5413,41
42.5599,33
42.5784,20
42.5970,17
42.6156,21
42.6342,22
42.6527,24
42.6713,25
42.6899,26
42.7085,37
42.7270,28
42.7456,39
42.7642,26
42.7828,33
42.8013,30
42.8199,24
42.8385,19
42.8571,36
42.8756,31
42.8942,35
42.9128,25
42.9314,35
42.9500,23
42.9685,27
42.9871,34
43.0057,31
43.0243,25
43.0428,33
43.0614,28
43.0800,25
43.0986,28
43.1171,27
43.1357,35
43.1543,22
43.1729,28
43.1914,33
43.2100,28
43.2286,34
43.2472,35
43.2657,29
43.2843,37
43.3029,32
43.3215,31
43.3400,30
43.3586,30
43.3772,35
43.3958,29
43.4143,33
43.4329,23
43.4515,33
43.4701,43
43.4886,39
43.5072,45
43.5258,40
43.5444,33
43.5629,31
43.5815,30
43.6001,30
43.6187,33
43.6372,35
43.6558,28
43.6744,40
43.6930,29
43.7116,39
43.7301,30
43.7487,30
43.7673,33
43.7859,27
43.8044,29
43.8230,27
43.8416,33
43.8602,26
43.8787,27
43.8973,35
43.9159,24
43.9345,26
43.9530,27
43.9716,22
43.9902,21
44.0088,20
44.0273,24
44.0459,23
44.0645,33
44.0831,25
44.1016,28
44.1202,29
44.1388,32
44.1574,30
44.1759,37
44.1945,30
44.2131,37
44.2317,28
44.2502,25
44.2688,31
44.2874,23
44.3060,22
44.3245,24
44.3431,28
44.3617,33
44.3803,23
44.3988,33
44.4174,28
44.4360,27
44.4546,25
44.4732,31
44.4917,29
44.5103,15
44.5289,19
44.5475,32
44.5660,27
44.5846,21
44.6032,25
44.6218,31
44.6403,29
44.6589,33
44.6775,21
44.6961,26
44.7146,31
44.7332,24
44.7518,28
44.7704,32
44.7889,21
44.8075,30
44.8261,27
44.8447,35
44.8632,41
44.8818,38
44.9004,31
44.9190,27
44.9375,19
44.9561,30
44.9747,23
44.9933,32
45.0118,22
45.0304,30
45.0490,31
45.0676,24
45.0861,32
45.1047,29
45.1233,23
45.1419,30
45.1604,26
45.1790,23
45.1976,30
45.2162,30
45.2347,28
45.2533,32
45.2719,19
45.2905,23
45.3091,15
45.3276,26
45.3462,21
45.3648,25
45.3834,21
45.4019,24
45.4205,19
45.4391,30
45.4577,20
45.4762,18
45.4948,19
45.5134,15
45.5320,30
45.5505,26
45.5691,32
45.5877,27
45.6063,25
45.6248,23
45.6434,19
45.6620,24
45.6806,34
45.6991,29
45.7177,25
45.7363,17
45.7549,27
45.7734,25
45.7920,24
45.8106,21
45.8292,23
45.8477,20
45.8663,25
45.8849,23
45.9035,24
45.9220,23
45.9406,22
45.9592,23
45.9778,27
45.9963,31
46.0149,29
46.0335,28
46.0521,29
46.0707,23
46.0892,30
46.1078,27
46.1264,25
46.1450,24
46.1635,21
46.1821,29
46.2007,22
46.2193,27
46.2378,27
46.2564,23
46.2750,33
46.2936,12
46.3121,19
46.3307,28
46.3493,14
46.3679,34
46.3864,33
46.4050,23
46.4236,28
46.4422,29
46.4607,27
46.4793,25
46.4979,23
46.5165,24
46.5350,21
46.5536,26
46.5722,22
46.5908,34
46.6093,31
46.6279,19
46.6465,26
46.6651,30
46.6836,22
46.7022,23
46.7208,29
46.7394,33
46.7579,23
46.7765,22
46.7951,23
46.8137,16
46.8323,31
46.8508,25
46.8694,24
46.8880,24
46.9066,26
46.9251,24
46.9437,28
46.9623,25
46.9809,21
46.9994,26
47.0180,22
47.0366,23
47.0552,19
47.0737,30
47.0923,28
47.1109,34
47.1295,22
47.1480,29
47.1666,29
47.1852,26
47.2038,24
47.2223,27
47.2409,21
47.2595,24
47.2781,30
47.2966,16
47.3152,26
47.3338,26
47.3524,23
47.3709,23
47.3895,26
47.4081,25
47.4267,22
47.4452,27
47.4638,24
47.4824,14
47.5010,17
47.5195,22
47.5381,27
47.5567,18
47.5753,27
47.5939,19
47.6124,24
47.6310,32
47.6496,29
47.6682,26
47.6867,18
47.7053,34
47.7239,24
47.7425,22
47.7610,17
47.7796,24
47.7982,18
47.8168,20
47.8353,34
47.8539,29
47.8725,23
47.8911,19
47.9096,23
47.9282,21
47.9468,16
47.9654,15
47.9839,22
48.0025,13
48.0211,21
48.0397,24
48.0582,15
48.0768,20
48.0954,24
48.1140,20
48.1325,30
48.1511,18
48.1697,20
48.1883,23
48.2068,23
48.2254,25
48.2440,22
48.2626,21
48.2811,16
48.2997,21
48.3183,26
48.3369,22
48.3555,25
48.3740,28
48.3926,25
48.4112,16
48.4298,28
48.4483,14
48.4669,19
48.4855,17
48.5041,30
48.5226,20
48.5412,25
48.5598,24
48.5784,22
48.5969,28
48.6155,25
48.6341,27
48.6527,27
48.6712,23
48.6898,21
48.7084,27
48.7270,27
48.7455,23
48.7641,15
48.7827,25
48.8013,18
48.8198,21
48.8384,30
48.8570,31
48.8756,25
48.8941,44
48.9127,31
48.9313,35
48.9499,42
48.9684,50
48.9870,38
49.0056,35
49.0242,31
49.0427,20
49.0613,32
49.0799,32
49.0985,38
49.1171,25
49.1356,29
49.1542,25
49.1728,20
49.1914,24
49.2099,28
49.2285,23
49.2471,20
49.2657,27
49.2842,20
49.3028,23
49.3214,24
49.3400,24
49.3585,29
49.3771,22
49.3957,29
49.4143,18
49.4328,13
49.4514,19
49.4700,35
49.4886,26
49.5071,24
49.5257,21
49.5443,28
49.5629,21
49.5814,19
49.6000,21
49.6186,19
49.6372,21
49.6557,34
49.6743,18
49.6929,22
49.7115,29
49.7300,30
49.7486,20
49.7672,28
49.7858,28
49.8043,32
49.8229,32
49.8415,19
49.8601,27
49.8786,24
49.8972,25
49.9158,33
49.9344,26
49.9530,20
49.9715,22
49.9901,25
50.0087,17
50.0273,23
50.0458,27
50.0644,20
50.0830,19
50.1016,30
50.1201,17
50.1387,15
50.1573,21
50.1759,24
50.1944,19
50.2130,19
50.2316,16
50.2502,25
50.2687,28
50.2873,15
50.3059,21
50.3245,20
50.3430,24
50.3616,25
50.3802,24
50.3988,20
50.4173,24
50.4359,25
50.4545,29
50.4731,20
50.4916,23
50.5102,27
50.5288,23
50.5474,18
50.5659,14
50.5845,19
50.6031,31
50.6217,31
50.6402,32
50.6588,16
50.6774,24
50.6960,27
50.7146,23
50.7331,25
50.7517,24
50.7703,20
50.7889,15
50.8074,23
50.8260,18
50.8446,19
50.8632,26
50.8817,25
50.9003,20
50.9189,23
50.9375,26
50.9560,17
50.9746,27
50.9932,18
51.0118,18
51.0303,25
51.0489,26
51.0675,26
51.0861,26
51.1046,18
51.1232,25
51.1418,19
51.1604,28
51.1789,29
51.1975,27
51.2161,22
51.2347,26
51.2532,25
51.2718,14
51.2904,24
51.3090,22
51.3275,27
51.3461,21
51.3647,21
51.3833,33
51.4018,26
51.4204,19
51.4390,23
51.4576,21
51.4762,19
51.4947,26
51.5133,22
51.5319,24
51.5505,21
51.5690,30
51.5876,15
51.6062,23
51.6248,15
51.6433,26
51.6619,21
51.6805,24
51.6991,15
51.7176,23
51.7362,31
51.7548,19
51.7734,23
51.7919,22
51.8105,19
51.8291,26
51.8477,22
51.8662,21
51.8848,26
51.9034,20
51.9220,22
51.9405,25
51.9591,20
51.9777,18
51.9963,20
52.0148,32
52.0334,24
52.0520,19
52.0706,17
52.0891,22
52.1077,22
52.1263,22
52.1449,18
52.1634,25
52.1820,21
52.2006,27
52.2192,22
52.2378,18
52.2563,25
52.2749,11
52.2935,25
52.3121,19
52.3306,20
52.3492,25
52.3678,24
52.3864,23
52.4049,27
52.4235,27
52.4421,16
52.4607,20
52.4792,21
52.4978,22
52.5164,22
52.5350,22
52.5535,29
52.5721,24
52.5907,24
52.6093,16
52.6278,23
52.6464,21
52.6650,17
52.6836,26
52.7021,32
52.7207,13
52.7393,15
52.7579,23
52.7764,19
52.7950,21
52.8136,18
52.8322,23
52.8507,21
52.8693,18
52.8879,26
52.9065,22
52.9250,28
52.9436,20
52.9622,14
52.9808,24
52.9994,19
53.0179,27
53.0365,23
53.0551,18
53.0737,27
53.0922,24
53.1108,28
53.1294,24
53.1480,26
53.1665,22
53.1851,33
53.2037,21
53.2223,30
53.2408,20
53.2594,18
53.2780,19
53.2966,19
53.3151,28
53.3337,28
53.3523,22
53.3709,13
53.3894,19
53.4080,24
53.4266,14
53.4452,22
53.4637,22
53.4823,19
53.5009,20
53.5195,25
53.5380,22
53.5566,20
53.5752,21
53.5938,22
53.6123,20
53.6309,8
53.6495,18
53.6681,24
53.6866,23
53.7052,9
53.7238,16
53.7424,25
53.7610,16
53.7795,19
53.7981,21
53.8167,18
53.8353,21
53.8538,19
53.8724,26
53.8910,19
53.9096,10
53.9281,18
53.9467,23
53.9653,39
53.9839,24
54.0024,23
54.0210,29
54.0396,23
54.0582,19
54.0767,28
54.0953,25
54.1139,18
54.1325,23
54.1510,26
54.1696,21
54.1882,29
54.2068,20
54.2253,28
54.2439,25
54.2625,25
54.2811,17
54.2996,25
54.3182,24
54.3368,23
54.3554,24
54.3739,23
54.3925,23
54.4111,24
54.4297,29
54.4482,26
54.4668,17
54.4854,25
54.5040,26
54.5225,22
54.5411,16
54.5597,12
54.5783,9
54.5969,20
54.6154,16
54.6340,28
54.6526,16
54.6712,14
54.6897,22
54.7083,15
54.7269,19
54.7455,20
54.7640,24
54.7826,16
54.8012,17
54.8198,18
54.8383,24
54.8569,18
54.8755,27
54.8941,21
54.9126,12
54.9312,16
54.9498,14
54.9684,28
54.9869,26
55.0055,18
55.0241,16
55.0427,27
55.0612,19
55.0798,18
55.0984,16
55.1170,15
55.1355,22
55.1541,21
55.1727,21
55.1913,25
55.2098,24
55.2284,21
55.2470,23
55.2656,21
55.2841,22
55.3027,26
55.3213,23
55.3399,21
55.3585,25
55.3770,21
55.3956,22
55.4142,25
55.4328,13
55.4513,15
55.4699,26
55.4885,17
55.5071,16
55.5256,25
55.5442,21
55.5628,16
55.5814,22
55.5999,28
55.6185,17
55.6371,21
55.6557,19
55.6742,24
55.6928,21
55.7114,17
55.7300,17
55.7485,22
55.7671,27
55.7857,18
55.8043,23
55.8228,18
55.8414,14
55.8600,19
55.8786,15
55.8971,12
55.9157,20
55.9343,19
55.9529,23
55.9714,14
55.9900,21
56.0086,24
56.0272,18
56.0457,24
56.0643,31
56.0829,15
56.1015,17
56.1201,21
56.1386,24
56.1572,24
56.1758,22
56.1944,15
56.2129,26
56.2315,24
56.2501,29
56.2687,20
56.2872,27
56.3058,19
56.3244,31
56.3430,26
56.3615,31
56.3801,26
56.3987,25
56.4173,32
56.4358,18
56.4544,21
56.4730,16
56.4916,19
56.5101,17
56.5287,23
56.5473,16
56.5659,21
56.5844,19
56.6030,29
56.6216,16
56.6402,18
56.6587,21
56.6773,17
56.6959,13
56.7145,22
56.7330,20
56.7516,16
56.7702,26
56.7888,18
56.8073,20
56.8259,22
56.8445,16
56.8631,28
56.8817,18
56.9002,26
56.9188,21
56.9374,26
56.9560,14
56.9745,20
56.9931,19
57.0117,28
57.0303,20
57.0488,13
57.0674,17
57.0860,19
57.1046,16
57.1231,20
57.1417,15
57.1603,22
57.1789,8
57.1974,14
57.2160,16
57.2346,20
57.2532,17
57.2717,17
57.2903,20
57.3089,24
57.3275,22
57.3460,22
57.3646,26
57.3832,16
57.4018,24
57.4203,23
57.4389,21
57.4575,24
57.4761,18
57.4946,22
57.5132,21
57.5318,26
57.5504,17
57.5689,29
57.5875,15
57.6061,27
57.6247,12
57.6433,15
57.6618,19
57.6804,27
57.6990,21
57.7176,26
57.7361,13
57.7547,17
57.7733,17
57.7919,24
57.8104,19
57.8290,18
57.8476,20
57.8662,22
57.8847,30
57.9033,27
57.9219,24
57.9405,22
57.9590,24
57.9776,14
57.9962,24
58.0148,17
58.0333,18
58.0519,21
58.0705,22
58.0891,21
58.1076,23
58.1262,24
58.1448,24
58.1634,15
58.1819,17
58.2005,15
58.2191,9
58.2377,18
58.2562,25
58.2748,18
58.2934,22
58.3120,16
58.3305,15
58.3491,21
58.3677,25
58.3863,13
58.4049,30
58.4234,16
58.4420,23
58.4606,13
58.4792,18
58.4977,16
58.5163,15
58.5349,23
58.5535,21
58.5720,19
58.5906,32
58.6092,23
58.6278,8
58.6463,12
58.6649,18
58.6835,25
58.7021,20
58.7206,18
58.7392,19
58.7578,14
58.7764,18
58.7949,24
58.8135,15
58.8321,27
58.8507,21
58.8692,20
58.8878,16
58.9064,21
58.9250,19
58.9435,24
58.9621,24
58.9807,20
58.9993,24
59.0178,25
59.0364,20
59.0550,17
59.0736,29
59.0921,24
59.1107,24
59.1293,20
59.1479,31
59.1664,20
59.1850,17
59.2036,17
59.2222,22
59.2408,23
59.2593,21
59.2779,23
59.2965,26
59.3151,17
59.3336,15
59.3522,21
59.3708,17
59.3894,23
59.4079,14
59.4265,21
59.4451,31
59.4637,20
59.4822,22
59.5008,17
59.5194,18
59.5380,24
59.5565,20
59.5751,21
59.5937,24
59.6123,17
59.6308,21
59.6494,21
59.6680,25
59.6866,22
59.7051,15
59.7237,21
59.7423,15
59.7609,16
59.7794,21
59.7980,19
59.8166,20
59.8352,22
59.8537,26
59.8723,21
59.8909,21
59.9095,15
59.9280,31
59.9466,18
59.9652,17
59.9838,19
60.0024,26
