;,2THETA,
5.0000,102
5.0186,86
5.0372,103
5.0557,96
5.0743,74
5.0929,92
5.1115,100
5.1300,79
5.1486,109
5.1672,85
5.1858,103
5.2043,107
5.2229,67
5.2415,88
5.2601,95
5.2786,94
5.2972,89
5.3158,91
5.3344,83
5.3529,83
5.3715,84
5.3901,90
5.4087,75
5.4272,85
5.4458,84
5.4644,75
5.4830,94
5.5015,84
5.5201,100
5.5387,96
5.5573,77
5.5758,91
5.5944,77
5.6130,68
5.6316,72
5.6501,74
5.6687,90
5.6873,78
5.7059,81
5.7244,75
5.7430,73
5.7616,94
5.7802,78
5.7988,76
5.8173,76
5.8359,58
5.8545,73
5.8731,66
5.8916,70
5.9102,78
5.9288,83
5.9474,67
5.9659,73
5.9845,74
6.0031,68
6.0217,76
6.0402,67
6.0588,59
6.0774,63
6.0960,92
6.1145,74
6.1331,72
6.1517,88
6.1703,83
6.1888,72
6.2074,67
6.2260,63
6.2446,82
6.2631,72
6.2817,73
6.3003,59
6.3189,71
6.3374,67
6.3560,56
6.3746,63
6.3932,75
6.4117,78
6.4303,81
6.4489,65
6.4675,63
6.4860,77
6.5046,76
6.5232,68
6.5418,67
6.5604,73
6.5789,51
6.5975,73
6.6161,80
6.6347,74
6.6532,62
6.6718,77
6.6904,50
6.7090,69
6.7275,54
6.7461,76
6.7647,57
6.7833,75
6.8018,70
6.8204,68
6.8390,66
6.8576,58
6.8761,72
6.8947,59
6.9133,66
6.9319,65
6.9504,61
6.9690,49
6.9876,66
7.0062,63
7.0247,55
7.0433,66
7.0619,56
7.0805,69
7.0990,53
7.1176,47
7.1362,66
7.1548,54
7.1733,68
7.1919,56
7.2105,66
7.2291,65
7.2476,58
7.2662,49
7.2848,57
7.3034,67
7.3220,79
7.3405,64
7.3591,61
7.3777,58
7.3963,72
7.4148,76
7.4334,66
7.4520,59
7.4706,68
7.4891,51
7.5077,55
7.5263,65
7.5449,52
7.5634,56
7.5820,62
7.6006,48
7.6192,62
7.6377,53
7.6563,59
7.6749,60
7.6935,62
7.7120,59
7.7306,60
7.7492,84
7.7678,68
7.7863,62
7.8049,68
7.8235,59
7.8421,63
7.8606,62
7.8792,72
7.8978,70
7.9164,58
7.9349,81
7.9535,66
7.9721,48
7.9907,52
8.0092,100
8.0278,72
8.0464,74
8.0650,74
8.0835,73
8.1021,77
8.1207,65
8.1393,70
8.1579,66
8.1764,72
8.1950,84
8.2136,76
8.2322,59
8.2507,68
8.2693,61
8.2879,66
8.3065,76
8.3250,76
8.3436,77
8.3622,71
8.3808,59
8.3993,68
8.4179,71
8.4365,89
8.4551,68
8.4736,72
8.4922,89
8.5108,65
8.5294,71
8.5479,73
8.5665,66
8.5851,64
8.6037,71
8.6222,71
8.6408,75
8.6594,65
8.6780,82
8.6965,95
8.7151,69
8.7337,83
8.7523,65
8.7708,95
8.7894,86
8.8080,82
8.8266,62
8.8451,82
8.8637,78
8.8823,80
8.9009,74
8.9195,79
8.9380,95
8.9566,91
8.9752,86
8.9938,69
9.0123,94
9.0309,96
9.0495,81
9.0681,89
9.0866,70
9.1052,76
9.1238,80
9.1424,81
9.1609,68
9.1795,81
9.1981,68
9.2167,89
9.2352,87
9.2538,68
9.2724,86
9.2910,81
9.3095,80
9.3281,93
9.3467,75
9.3653,92
9.3838,75
9.4024,77
9.4210,94
9.4396,91
9.4581,90
9.4767,65
9.4953,84
9.5139,82
9.5324,92
9.5510,95
9.5696,89
9.5882,86
9.6067,105
9.6253,87
9.6439,76
9.6625,75
9.6811,80
9.6996,80
9.7182,66
9.7368,73
9.7554,74
9.7739,95
9.7925,75
9.8111,84
9.8297,80
9.8482,89
9.8668,77
9.8854,86
9.9040,81
9.9225,84
9.9411,84
9.9597,77
9.9783,102
9.9968,101
10.0154,84
10.0340,91
10.0526,88
10.0711,100
10.0897,87
10.1083,79
10.1269,79
10.1454,88
10.1640,108
10.1826,94
10.2012,94
10.2197,96
10.2383,80
10.2569,80
10.2755,96
10.2940,79
10.3126,89
10.3312,88
10.3498,94
10.3683,95
10.3869,93
10.4055,74
10.4241,94
10.4427,97
10.4612,105
10.4798,93
10.4984,88
10.5170,92
10.5355,87
10.5541,101
10.5727,75
10.5913,78
10.6098,77
10.6284,85
10.6470,76
10.6656,86
10.6841,97
10.7027,76
10.7213,89
10.7399,75
10.7584,88
10.7770,77
10.7956,100
10.8142,97
10.8327,94
10.8513,78
10.8699,89
10.8885,103
10.9070,99
10.9256,95
10.9442,84
10.9628,86
10.9813,89
10.9999,92
11.0185,77
11.0371,92
11.0556,105
11.0742,90
11.0928,89
11.1114,81
11.1299,102
11.1485,86
11.1671,101
11.1857,84
11.2043,97
11.2228,101
11.2414,86
11.2600,74
11.2786,69
11.2971,91
11.3157,77
11.3343,88
11.3529,87
11.3714,98
11.3900,91
11.4086,88
11.4272,76
11.4457,93
11.4643,104
11.4829,87
11.5015,98
11.5200,86
11.5386,92
11.5572,92
11.5758,77
11.5943,98
11.6129,89
11.6315,80
11.6501,94
11.6686,93
11.6872,75
11.7058,81
11.7244,85
11.7429,77
11.7615,84
11.7801,82
11.7987,74
11.8172,85
11.8358,102
11.8544,65
11.8730,80
11.8915,68
11.9101,108
11.9287,82
11.9473,66
11.9659,74
11.9844,96
12.0030,83
12.0216,71
12.0402,71
12.0587,82
12.0773,75
12.0959,77
12.1145,84
12.1330,81
12.1516,91
12.1702,99
12.1888,80
12.2073,87
12.2259,83
12.2445,78
12.2631,86
12.2816,90
12.3002,75
12.3188,87
12.3374,75
12.3559,74
12.3745,72
12.3931,69
12.4117,89
12.4302,81
12.4488,83
12.4674,82
12.4860,76
12.5045,89
12.5231,80
12.5417,55
12.5603,76
12.5788,79
12.5974,82
12.6160,89
12.6346,76
12.6531,77
12.6717,72
12.6903,102
12.7089,86
12.7274,80
12.7460,54
12.7646,94
12.7832,71
12.8018,64
12.8203,63
12.8389,71
12.8575,72
12.8761,71
12.8946,65
12.9132,51
12.9318,66
12.9504,64
12.9689,82
12.9875,74
13.0061,72
13.0247,77
13.0432,71
13.0618,81
13.0804,68
13.0990,53
13.1175,53
13.1361,78
13.1547,68
13.1733,80
13.1918,58
13.2104,59
13.2290,80
13.2476,75
13.2661,67
13.2847,72
13.3033,76
13.3219,68
13.3404,75
13.3590,92
13.3776,66
13.3962,76
13.4147,78
13.4333,67
13.4519,70
13.4705,77
13.4890,78
13.5076,52
13.5262,60
13.5448,81
13.5634,67
13.5819,67
13.6005,64
13.6191,66
13.6377,64
13.6562,67
13.6748,69
13.6934,74
13.7120,93
13.7305,70
13.7491,73
13.7677,67
13.7863,61
13.8048,72
13.8234,65
13.8420,75
13.8606,65
13.8791,62
13.8977,70
13.9163,63
13.9349,71
13.9534,70
13.9720,75
13.9906,78
14.0092,56
14.0277,57
14.0463,82
14.0649,74
14.0835,60
14.1020,71
14.1206,70
14.1392,80
14.1578,68
14.1763,67
14.1949,75
14.2135,69
14.2321,59
14.2506,59
14.2692,72
14.2878,76
14.3064,72
14.3250,70
14.3435,63
14.3621,74
14.3807,58
14.3993,64
14.4178,73
14.4364,73
14.4550,61
14.4736,60
14.4921,66
14.5107,59
14.5293,60
14.5479,75
14.5664,56
14.5850,62
14.6036,64
14.6222,47
14.6407,58
14.6593,53
14.6779,69
14.6965,56
14.7150,55
14.7336,58
14.7522,51
14.7708,64
14.7893,67
14.8079,68
14.8265,73
14.8451,50
14.8636,66
14.8822,60
14.9008,43
14.9194,53
14.9379,56
14.9565,56
14.9751,47
14.9937,57
15.0122,58
15.0308,55
15.0494,50
15.0680,60
15.0866,51
15.1051,62
15.1237,51
15.1423,62
15.1609,65
15.1794,54
15.1980,49
15.2166,48
15.2352,70
15.2537,51
15.2723,49
15.2909,65
15.3095,52
15.3280,68
15.3466,68
15.3652,69
15.3838,53
15.4023,66
15.4209,59
15.4395,62
15.4581,58
15.4766,58
15.4952,62
15.5138,74
15.5324,52
15.5509,54
15.5695,59
15.5881,68
15.6067,43
15.6252,59
15.6438,53
15.6624,58
15.6810,79
15.6995,73
15.7181,65
15.7367,48
15.7553,69
15.7738,61
15.7924,60
15.8110,61
15.8296,59
15.8482,51
15.8667,53
15.8853,55
15.9039,54
15.9225,56
15.9410,62
15.9596,60
15.9782,74
15.9968,78
16.0153,62
16.0339,60
16.0525,47
16.0711,60
16.0896,61
16.1082,62
16.1268,53
16.1454,66
16.1639,54
16.1825,57
16.2011,56
16.2197,55
16.2382,50
16.2568,57
16.2754,60
16.2940,65
16.3125,68
16.3311,59
16.3497,57
16.3683,59
16.3868,66
16.4054,59
16.4240,62
16.4426,56
16.4611,71
16.4797,64
16.4983,61
16.5169,62
16.5354,66
16.5540,68
16.5726,52
16.5912,66
16.6097,76
16.6283,58
16.6469,70
16.6655,64
16.6841,53
16.7026,51
16.7212,60
16.7398,55
16.7584,54
16.7769,54
16.7955,50
16.8141,56
16.8327,71
16.8512,63
16.8698,68
16.8884,52
16.9070,60
16.9255,64
16.9441,58
16.9627,54
16.9813,64
16.9998,63
17.0184,61
17.0370,45
17.0556,57
17.0741,73
17.0927,68
17.1113,56
17.1299,61
17.1484,48
17.1670,56
17.1856,65
17.2042,69
17.2227,69
17.2413,58
17.2599,53
17.2785,57
17.2970,58
17.3156,48
17.3342,56
17.3528,62
17.3713,46
17.3899,61
17.4085,45
17.4271,59
17.4457,69
17.4642,51
17.4828,48
17.5014,60
17.5200,78
17.5385,49
17.5571,56
17.5757,60
17.5943,57
17.6128,64
17.6314,62
17.6500,64
17.6686,64
17.6871,68
17.7057,62
17.7243,53
17.7429,61
17.7614,62
17.7800,67
17.7986,67
17.8172,73
17.8357,56
17.8543,74
17.8729,56
17.8915,70
17.9100,61
17.9286,69
17.9472,63
17.9658,53
17.9843,41
18.0029,67
18.0215,67
18.0401,55
18.0586,56
18.0772,59
18.0958,61
18.1144,53
18.1329,48
18.1515,55
18.1701,56
18.1887,68
18.2073,58
18.2258,51
18.2444,50
18.2630,53
18.2816,66
18.3001,65
18.3187,59
18.3373,48
18.3559,60
18.3744,50
18.3930,63
18.4116,64
18.4302,69
18.4487,61
18.4673,54
18.4859,57
18.5045,64
18.5230,61
18.5416,59
18.5602,68
18.5788,56
18.5973,49
18.6159,66
18.6345,82
18.6531,59
18.6716,54
18.6902,70
18.7088,62
18.7274,57
18.7459,60
18.7645,50
18.7831,64
18.8017,62
18.8202,65
18.8388,55
18.8574,68
18.8760,62
18.8945,56
18.9131,50
18.9317,64
18.9503,47
18.9689,48
18.9874,66
19.0060,70
19.0246,74
19.0432,67
19.0617,72
19.0803,60
19.0989,65
19.1175,74
19.1360,87
19.1546,51
19.1732,57
19.1918,71
19.2103,58
19.2289,63
19.2475,61
19.2661,68
19.2846,64
19.3032,52
19.3218,67
19.3404,72
19.3589,84
19.3775,64
19.3961,70
19.4147,61
19.4332,61
19.4518,64
19.4704,53
19.4890,67
19.5075,84
19.5261,74
19.5447,57
19.5633,64
19.5818,57
19.6004,70
19.6190,47
19.6376,53
19.6561,64
19.6747,49
19.6933,74
19.7119,67
19.7305,70
19.7490,67
19.7676,63
19.7862,57
19.8048,69
19.8233,69
19.8419,65
19.8605,72
19.8791,62
19.8976,59
19.9162,71
19.9348,82
19.9534,48
19.9719,53
19.9905,72
20.0091,56
20.0277,60
20.0462,74
20.0648,59
20.0834,69
20.1020,69
20.1205,64
20.1391,54
20.1577,63
20.1763,79
20.1948,69
20.2134,72
20.2320,66
20.2506,77
20.2691,60
20.2877,69
20.3063,62
20.3249,73
20.3434,72
20.3620,76
20.3806,64
20.3992,59
20.4177,69
20.4363,58
20.4549,63
20.4735,66
20.4921,72
20.5106,70
20.5292,72
20.5478,65
20.5664,88
20.5849,82
20.6035,63
20.6221,66
20.6407,80
20.6592,76
20.6778,67
20.6964,57
20.7150,69
20.7335,69
20.7521,75
20.7707,80
20.7893,63
20.8078,81
20.8264,73
20.8450,69
20.8636,82
20.8821,64
20.9007,68
20.9193,70
20.9379,76
20.9564,78
20.9750,74
20.9936,82
21.0122,79
21.0307,67
21.0493,76
21.0679,98
21.0865,77
21.1050,70
21.1236,70
21.1422,101
21.1608,100
21.1793,80
21.1979,109
21.2165,128
21.2351,110
21.2537,114
21.2722,111
21.2908,110
21.3094,113
21.3280,151
21.3465,189
21.3651,191
21.3837,162
21.4023,133
21.4208,123
21.4394,100
21.4580,67
21.4766,83
21.4951,69
21.5137,67
21.5323,65
21.5509,74
21.5694,56
21.5880,73
21.6066,82
21.6252,75
21.6437,78
21.6623,79
21.6809,57
21.6995,77
21.7180,92
21.7366,57
21.7552,75
21.7738,83
21.7923,74
21.8109,76
21.8295,78
21.8481,73
21.8666,74
21.8852,72
21.9038,74
21.9224,63
21.9409,65
21.9595,70
21.9781,71
21.9967,71
22.0152,71
22.0338,57
22.0524,74
22.0710,85
22.0896,77
22.1081,67
22.1267,64
22.1453,65
22.1639,85
22.1824,70
22.2010,71
22.2196,82
22.2382,69
22.2567,67
22.2753,78
22.2939,78
22.3125,86
22.3310,69
22.3496,69
22.3682,79
22.3868,61
22.4053,66
22.4239,80
22.4425,79
22.4611,67
22.4796,81
22.4982,69
22.5168,67
22.5354,64
22.5539,73
22.5725,71
22.5911,57
22.6097,56
22.6282,65
22.6468,51
22.6654,79
22.6840,57
22.7025,79
22.7211,75
22.7397,71
22.7583,69
22.7768,69
22.7954,73
22.8140,58
22.8326,84
22.8512,73
22.8697,64
22.8883,68
22.9069,64
22.9255,77
22.9440,87
22.9626,91
22.9812,63
22.9998,71
23.0183,57
23.0369,76
23.0555,68
23.0741,79
23.0926,78
23.1112,49
23.1298,79
23.1484,79
23.1669,60
23.1855,65
23.2041,79
23.2227,66
23.2412,74
23.2598,65
23.2784,67
23.2970,76
23.3155,82
23.3341,65
23.3527,83
23.3713,81
23.3898,75
23.4084,89
23.4270,70
23.4456,74
23.4641,67
23.4827,80
23.5013,72
23.5199,62
23.5384,76
23.5570,78
23.5756,78
23.5942,77
23.6128,78
23.6313,94
23.6499,75
23.6685,80
23.6871,72
23.7056,82
23.7242,70
23.7428,67
23.7614,67
23.7799,70
23.7985,71
23.8171,66
23.8357,53
23.8542,69
23.8728,49
23.8914,82
23.9100,75
23.9285,77
23.9471,73
23.9657,82
23.9843,59
24.0028,72
24.0214,94
24.0400,65
24.0586,79
24.0771,74
24.0957,83
24.1143,84
24.1329,61
24.1514,67
24.1700,71
24.1886,75
24.2072,85
24.2257,88
24.2443,67
24.2629,107
24.2815,76
24.3000,103
24.3186,78
24.3372,85
24.3558,77
24.3744,80
24.3929,58
24.4115,73
24.4301,75
24.4487,77
24.4672,82
24.4858,74
24.5044,58
24.5230,90
24.5415,65
24.5601,74
24.5787,65
24.5973,82
24.6158,77
24.6344,64
24.6530,83
24.6716,82
24.6901,60
24.7087,79
24.7273,84
24.7459,77
24.7644,71
24.7830,55
24.8016,81
24.8202,73
24.8387,66
24.8573,73
24.8759,52
24.8945,83
24.9130,73
24.9316,74
24.9502,84
24.9688,61
24.9873,78
25.0059,80
25.0245,66
25.0431,71
25.0616,70
25.0802,78
25.0988,83
25.1174,78
25.1360,82
25.1545,67
25.1731,77
25.1917,71
25.2103,70
25.2288,76
25.2474,55
25.2660,76
25.2846,69
25.3031,68
25.3217,76
25.3403,80
25.3589,70
25.3774,60
25.3960,73
25.4146,69
25.4332,70
25.4517,65
25.4703,74
25.4889,72
25.5075,64
25.5260,87
25.5446,84
25.5632,82
25.5818,76
25.6003,85
25.6189,80
25.6375,81
25.6561,71
25.6746,83
25.6932,73
25.7118,72
25.7304,67
25.7489,70
25.7675,81
25.7861,66
25.8047,74
25.8232,64
25.8418,61
25.8604,80
25.8790,67
25.8976,66
25.9161,68
25.9347,58
25.9533,83
25.9719,87
25.9904,75
26.0090,62
26.0276,65
26.0462,64
26.0647,78
26.0833,71
26.1019,66
26.1205,79
26.1390,66
26.1576,71
26.1762,69
26.1948,70
26.2133,80
26.2319,94
26.2505,75
26.2691,69
26.2876,58
26.3062,62
26.3248,75
26.3434,80
26.3619,78
26.3805,69
26.3991,73
26.4177,69
26.4362,79
26.4548,71
26.4734,76
26.4920,50
26.5105,55
26.5291,67
26.5477,74
26.5663,72
26.5848,62
26.6034,73
26.6220,69
26.6406,72
26.6591,63
26.6777,56
26.6963,67
26.7149,76
26.7335,77
26.7520,57
26.7706,80
26.7892,73
26.8078,75
26.8263,69
26.8449,60
26.8635,64
26.8821,73
26.9006,70
26.9192,78
26.9378,67
26.9564,68
26.9749,73
26.9935,84
27.0121,46
27.0307,70
27.0492,68
27.0678,73
27.0864,61
27.1050,65
27.1235,68
27.1421,72
27.1607,79
27.1793,80
27.1978,97
27.2164,104
27.2350,86
27.2536,80
27.2721,89
27.2907,69
27.3093,76
27.3279,66
27.3464,69
27.3650,88
27.3836,63
27.4022,69
27.4207,86
27.4393,83
27.4579,69
27.4765,66
27.4951,61
27.5136,77
27.5322,75
27.5508,74
27.5694,64
27.5879,70
27.6065,63
27.6251,71
27.6437,57
27.6622,68
27.6808,56
27.6994,62
27.7180,69
27.7365,67
27.7551,55
27.7737,67
27.7923,61
27.8108,68
27.8294,68
27.8480,55
27.8666,55
27.8851,53
27.9037,47
27.9223,62
27.9409,83
27.9594,60
27.9780,62
27.9966,75
28.0152,59
28.0337,76
28.0523,76
28.0709,50
28.0895,55
28.1080,80
28.1266,52
28.1452,70
28.1638,67
28.1823,58
28.2009,50
28.2195,58
28.2381,69
28.2567,75
28.2752,62
28.2938,53
28.3124,58
28.3310,75
28.3495,66
28.3681,63
28.3867,68
28.4053,68
28.4238,76
28.4424,63
28.4610,75
28.4796,57
28.4981,53
28.5167,56
28.5353,64
28.5539,73
28.5724,67
28.5910,67
28.6096,84
28.6282,57
28.6467,55
28.6653,54
28.6839,49
28.7025,63
28.7210,72
28.7396,60
28.7582,64
28.7768,54
28.7953,46
28.8139,55
28.8325,60
28.8511,51
28.8696,71
28.8882,68
28.9068,64
28.9254,74
28.9439,53
28.9625,53
28.9811,54
28.9997,55
29.0183,59
29.0368,76
29.0554,48
29.0740,54
29.0926,67
29.1111,51
29.1297,72
29.1483,64
29.1669,58
29.1854,68
29.2040,45
29.2226,53
29.2412,56
29.2597,53
29.2783,61
29.2969,67
29.3155,67
29.3340,59
29.3526,64
29.3712,69
29.3898,49
29.4083,56
29.4269,55
29.4455,49
29.4641,59
29.4826,63
29.5012,59
29.5198,55
29.5384,66
29.5569,60
29.5755,68
29.5941,64
29.6127,59
29.6312,55
29.6498,63
29.6684,42
29.6870,60
29.7055,71
29.7241,45
29.7427,53
29.7613,71
29.7799,63
29.7984,62
29.8170,59
29.8356,52
29.8542,44
29.8727,64
29.8913,51
29.9099,57
29.9285,68
29.9470,75
29.9656,58
29.9842,43
30.0028,54
30.0213,49
30.0399,44
30.0585,57
30.0771,58
30.0956,51
30.1142,59
30.1328,54
30.1514,53
30.1699,55
30.1885,52
30.2071,54
30.2257,81
30.2442,66
30.2628,73
30.2814,50
30.3000,71
30.3185,69
30.3371,86
30.3557,84
30.3743,123
30.3928,120
30.4114,93
30.4300,82
30.4486,80
30.4671,111
30.4857,87
30.5043,55
30.5229,63
30.5415,69
30.5600,49
30.5786,51
30.5972,58
30.6158,60
30.6343,59
30.6529,47
30.6715,64
30.6901,68
30.7086,53
30.7272,39
30.7458,60
30.7644,48
30.7829,49
30.8015,70
30.8201,65
30.8387,51
30.8572,58
30.8758,51
30.8944,50
30.9130,62
30.9315,44
30.9501,48
30.9687,46
30.9873,49
31.0058,53
31.0244,44
31.0430,44
31.0616,73
31.0801,50
31.0987,46
31.1173,59
31.1359,51
31.1544,54
31.1730,49
31.1916,45
31.2102,51
31.2287,56
31.2473,67
31.2659,51
31.2845,53
31.3030,54
31.3216,57
31.3402,58
31.3588,48
31.3774,52
31.3959,57
31.4145,44
31.4331,41
31.4517,48
31.4702,46
31.4888,41
31.5074,57
31.5260,61
31.5445,53
31.5631,52
31.5817,53
31.6003,56
31.6188,69
31.6374,49
31.6560,50
31.6746,57
31.6931,40
31.7117,49
31.7303,45
31.7489,54
31.7674,51
31.7860,61
31.8046,45
31.8232,53
31.8417,40
31.8603,52
31.8789,50
31.8975,53
31.9160,55
31.9346,62
31.9532,52
31.9718,35
31.9903,50
32.0089,49
32.0275,44
32.0461,62
32.0646,56
32.0832,58
32.1018,38
32.1204,54
32.1390,50
32.1575,42
32.1761,49
32.1947,50
32.2133,52
32.2318,51
32.2504,45
32.2690,45
32.2876,53
32.3061,57
32.3247,40
32.3433,47
32.3619,47
32.3804,56
32.3990,64
32.4176,52
32.4362,45
32.4547,56
32.4733,55
32.4919,60
32.5105,60
32.5290,53
32.5476,41
32.5662,60
32.5848,53
32.6033,64
32.6219,39
32.6405,47
32.6591,53
32.6776,48
32.6962,65
32.7148,50
32.7334,48
32.7519,50
32.7705,50
32.7891,50
32.8077,40
32.8262,41
32.8448,35
32.8634,46
32.8820,47
32.9006,44
32.9191,58
32.9377,58
32.9563,43
32.9749,58
32.9934,54
33.0120,46
33.0306,53
33.0492,50
33.0677,53
33.0863,53
33.1049,42
33.1235,56
33.1420,43
33.1606,48
33.1792,50
33.1978,41
33.2163,45
33.2349,35
33.2535,38
33.2721,49
33.2906,53
33.3092,52
33.3278,43
33.3464,32
33.3649,43
33.3835,35
33.4021,50
33.4207,39
33.4392,48
33.4578,38
33.4764,51
33.4950,36
33.5135,36
33.5321,34
33.5507,53
33.5693,34
33.5878,44
33.6064,47
33.6250,44
33.6436,36
33.6622,44
33.6807,48
33.6993,48
33.7179,38
33.7365,39
33.7550,29
33.7736,47
33.7922,40
33.8108,45
33.8293,41
33.8479,40
33.8665,43
33.8851,47
33.9036,47
33.9222,45
33.9408,35
33.9594,42
33.9779,43
33.9965,36
34.0151,34
34.0337,44
34.0522,46
34.0708,30
34.0894,37
34.1080,40
34.1265,51
34.1451,28
34.1637,34
34.1823,39
34.2008,54
34.2194,35
34.2380,38
34.2566,50
34.2751,43
34.2937,38
34.3123,41
34.3309,41
34.3494,44
34.3680,38
34.3866,47
34.4052,38
34.4238,38
34.4423,44
34.4609,43
34.4795,37
34.4981,38
34.5166,47
34.5352,43
34.5538,45
34.5724,43
34.5909,36
34.6095,45
34.6281,49
34.6467,49
34.6652,27
34.6838,51
34.7024,44
34.7210,44
34.7395,65
34.7581,51
34.7767,63
34.7953,64
34.8138,51
34.8324,56
34.8510,61
34.8696,45
34.8881,46
34.9067,48
34.9253,46
34.9439,49
34.9624,44
34.9810,42
34.9996,36
35.0182,41
35.0367,34
35.0553,31
35.0739,42
35.0925,41
35.1110,29
35.1296,40
35.1482,40
35.1668,38
35.1854,51
35.2039,32
35.2225,45
35.2411,39
35.2597,41
35.2782,34
35.2968,41
35.3154,35
35.3340,41
35.3525,39
35.3711,35
35.3897,47
35.4083,41
35.4268,33
35.4454,32
35.4640,47
35.4826,39
35.5011,35
35.5197,29
35.5383,21
35.5569,39
35.5754,28
35.5940,31
35.6126,35
35.6312,33
35.6497,36
35.6683,39
35.6869,29
35.7055,39
35.7240,36
35.7426,33
35.7612,41
35.7798,55
35.7983,37
35.8169,38
35.8355,41
35.8541,28
35.8726,42
35.8912,30
35.9098,34
35.9284,42
35.9469,21
35.9655,38
35.9841,35
36.0027,28
36.0213,28
36.0398,34
36.0584,25
36.0770,31
36.0956,39
36.1141,35
36.1327,38
36.1513,33
36.1699,35
36.1884,37
36.2070,32
36.2256,41
36.2442,37
36.2627,29
36.2813,28
36.2999,38
36.3185,35
36.3370,30
36.3556,33
36.3742,30
36.3928,36
36.4113,32
36.4299,36
36.4485,30
36.4671,42
36.4856,33
36.5042,40
36.5228,35
36.5414,41
36.5599,47
36.5785,35
36.5971,36
36.6157,30
36.6342,33
36.6528,24
36.6714,44
36.6900,31
36.7085,43
36.7271,37
36.7457,41
36.7643,32
36.7829,38
36.8014,37
36.8200,26
36.8386,37
36.8572,32
36.8757,41
36.8943,42
36.9129,36
36.9315,32
36.9500,25
36.9686,32
36.9872,44
37.0058,39
37.0243,25
37.0429,35
37.0615,24
37.0801,22
37.0986,34
37.1172,30
37.1358,32
37.1544,30
37.1729,40
37.1915,25
37.2101,29
37.2287,50
37.2472,34
37.2658,38
37.2844,38
37.3030,31
37.3215,37
37.3401,45
37.3587,46
37.3773,41
37.3958,43
37.4144,51
37.4330,62
37.4516,64
37.4701,35
37.4887,50
37.5073,48
37.5259,42
37.5445,50
37.5630,44
37.5816,41
37.6002,42
37.6188,41
37.6373,36
37.6559,29
37.6745,33
37.6931,33
37.7116,34
37.7302,28
37.7488,39
37.7674,36
37.7859,29
37.8045,39
37.8231,42
37.8417,43
37.8602,22
37.8788,26
37.8974,32
37.9160,30
37.9345,32
37.9531,34
37.9717,38
37.9903,38
38.0088,32
38.0274,24
38.0460,34
38.0646,28
38.0831,26
38.1017,28
38.1203,35
38.1389,28
38.1574,36
38.1760,34
38.1946,45
38.2132,23
38.2317,43
38.2503,33
38.2689,29
38.2875,19
38.3061,33
38.3246,20
38.3432,30
38.3618,26
38.3804,32
38.3989,37
38.4175,21
38.4361,33
38.4547,45
38.4732,40
38.4918,45
38.5104,26
38.5290,32
38.5475,27
38.5661,30
38.5847,21
38.6033,26
38.6218,29
38.6404,30
38.6590,39
38.6776,38
38.6961,24
38.7147,37
38.7333,26
38.7519,30
38.7704,31
38.7890,38
38.8076,36
38.8262,37
38.8447,26
38.8633,33
38.8819,25
38.9005,29
38.9190,34
38.9376,28
38.9562,35
38.9748,28
38.9933,24
39.0119,33
39.0305,36
39.0491,34
39.0677,28
39.0862,35
39.1048,36
39.1234,31
39.1420,28
39.1605,30
39.1791,30
39.1977,38
39.2163,33
39.2348,33
39.2534,39
39.2720,30
39.2906,26
39.3091,26
39.3277,18
39.3463,30
39.3649,21
39.3834,34
39.4020,38
39.4206,31
39.4392,33
39.4577,23
39.4763,26
39.4949,21
39.5135,22
39.5320,20
39.5506,23
39.5692,31
39.5878,34
39.6063,24
39.6249,25
39.6435,30
39.6621,24
39.6806,30
39.6992,33
39.7178,38
39.7364,27
39.7549,27
39.7735,26
39.7921,30
39.8107,38
39.8293,21
39.8478,20
39.8664,35
39.8850,30
39.9036,27
39.9221,34
39.9407,27
39.9593,29
39.9779,33
39.9964,27
40.0150,29
40.0336,29
40.0522,24
40.0707,23
40.0893,31
40.1079,31
40.1265,34
40.1450,23
40.1636,26
40.1822,29
40.2008,28
40.2193,32
40.2379,32
40.2565,33
40.2751,21
40.2936,31
40.3122,24
40.3308,27
40.3494,42
40.3679,22
40.3865,30
40.4051,18
40.4237,29
40.4422,25
40.4608,29
40.4794,27
40.4980,33
40.5165,24
40.5351,20
40.5537,36
40.5723,35
40.5908,36
40.6094,27
40.6280,35
40.6466,32
40.6652,29
40.6837,23
40.7023,20
40.7209,20
40.7395,32
40.7580,34
40.7766,22
40.7952,26
40.8138,28
40.8323,22
40.8509,27
40.8695,23
40.8881,25
40.9066,40
40.9252,29
40.9438,35
40.9624,35
40.9809,29
40.9995,31
41.0181,23
41.0367,30
41.0552,22
41.0738,34
41.0924,25
41.1110,28
41.1295,32
41.1481,26
41.1667,37
41.1853,33
41.2038,24
41.2224,24
41.2410,32
41.2596,38
41.2781,21
41.2967,23
41.3153,27
41.3339,39
41.3524,31
41.3710,22
41.3896,43
41.4082,33
41.4268,27
41.4453,22
41.4639,31
41.4825,36
41.5011,19
41.5196,31
41.5382,33
41.5568,31
41.5754,27
41.5939,24
41.6125,25
41.6311,21
41.6497,15
41.6682,29
41.6868,23
41.7054,19
41.7240,28
41.7425,23
41.7611,28
41.7797,32
41.7983,26
41.8168,35
41.8354,23
41.8540,23
41.8726,31
41.8911,24
41.9097,29
41.9283,27
41.9469,29
41.9654,29
41.9840,33
42.0026,26
42.0212,24
42.0397,26
42.0583,24
42.0769,21
42.0955,36
42.1140,30
42.1326,26
42.1512,27
42.1698,24
42.1884,33
42.2069,28
42.2255,21
42.2441,35
42.2627,23
42.2812,34
42.2998,33
42.3184,24
42.3370,23
42.3555,33
42.3741,22
42.3927,27
42.4113,21
42.4298,19
42.4484,22
42.4670,23
42.4856,34
42.5041,30
42.5227,21
42.5413,28
42.5599,29
42.5784,29
42.5970,34
42.6156,19
42.6342,30
42.6527,24
42.6713,26
42.6899,29
42.7085,20
42.7270,23
42.7456,21
42.7642,31
42.7828,22
42.8013,21
42.8199,29
42.8385,25
42.8571,25
42.8756,28
42.8942,22
42.9128,25
42.9314,17
42.9500,27
42.9685,18
42.9871,22
43.0057,33
43.0243,40
43.0428,37
43.0614,38
43.0800,28
43.0986,30
43.1171,19
43.1357,28
43.1543,29
43.1729,29
43.1914,33
43.2100,35
43.2286,29
43.2472,30
43.2657,28
43.2843,34
43.3029,29
43.3215,23
43.3400,34
43.3586,33
43.3772,20
43.3958,28
43.4143,21
43.4329,26
43.4515,37
43.4701,50
43.4886,61
43.5072,47
43.5258,41
43.5444,32
43.5629,31
43.5815,31
43.6001,35
43.6187,33
43.6372,43
43.6558,37
43.6744,24
43.6930,31
43.7116,31
43.7301,29
43.7487,28
43.7673,29
43.7859,16
43.8044,28
43.8230,28
43.8416,25
43.8602,34
43.8787,20
43.8973,18
43.9159,30
43.9345,27
43.9530,17
43.9716,17
43.9902,21
44.0088,25
44.0273,33
44.0459,27
44.0645,29
44.0831,28
44.1016,25
44.1202,30
44.1388,31
44.1574,27
44.1759,24
44.1945,31
44.2131,25
44.2317,18
44.2502,29
44.2688,27
44.2874,17
44.3060,18
44.3245,23
44.3431,26
44.3617,28
44.3803,25
44.3988,29
44.4174,28
44.4360,18
44.4546,27
44.4732,30
44.4917,28
44.5103,31
44.5289,29
44.5475,34
44.5660,28
44.5846,28
44.6032,35
44.6218,27
44.6403,25
44.6589,32
44.6775,26
44.6961,26
44.7146,24
44.7332,21
44.7518,30
44.7704,35
44.7889,30
44.8075,29
44.8261,26
44.8447,32
44.8632,34
44.8818,35
44.9004,33
44.9190,24
44.9375,20
44.9561,30
44.9747,25
44.9933,28
45.0118,28
45.0304,25
45.0490,22
45.0676,32
45.0861,32
45.1047,31
45.1233,19
45.1419,26
45.1604,26
45.1790,32
45.1976,27
45.2162,22
45.2347,31
45.2533,25
45.2719,23
45.2905,20
45.3091,26
45.3276,32
45.3462,25
45.3648,29
45.3834,22
45.4019,33
45.4205,30
45.4391,23
45.4577,35
45.4762,35
45.4948,31
45.5134,26
45.5320,22
45.5505,37
45.5691,23
45.5877,21
45.6063,38
45.6248,31
45.6434,18
45.6620,32
45.6806,21
45.6991,30
45.7177,28
45.7363,19
45.7549,21
45.7734,22
45.7920,29
45.8106,31
45.8292,16
45.8477,29
45.8663,20
45.8849,32
45.9035,25
45.9220,24
45.9406,29
45.9592,15
45.9778,29
45.9963,32
46.0149,30
46.0335,18
46.0521,23
46.0707,34
46.0892,32
46.1078,29
46.1264,30
46.1450,28
46.1635,27
46.1821,28
46.2007,26
46.2193,33
46.2378,23
46.2564,26
46.2750,27
46.2936,25
46.3121,25
46.3307,27
46.3493,17
46.3679,20
46.3864,27
46.4050,29
46.4236,30
46.4422,19
46.4607,26
46.4793,33
46.4979,19
46.5165,25
46.5350,24
46.5536,24
46.5722,29
46.5908,21
46.6093,19
46.6279,29
46.6465,23
46.6651,26
46.6836,27
46.7022,22
46.7208,24
46.7394,29
46.7579,21
46.7765,19
46.7951,26
46.8137,29
46.8323,23
46.8508,24
46.8694,21
46.8880,33
46.9066,26
46.9251,28
46.9437,14
46.9623,24
46.9809,24
46.9994,27
47.0180,27
47.0366,25
47.0552,30
47.0737,27
47.0923,32
47.1109,18
47.1295,16
47.1480,22
47.1666,18
47.1852,19
47.2038,22
47.2223,25
47.2409,19
47.2595,15
47.2781,30
47.2966,32
47.3152,21
47.3338,22
47.3524,25
47.3709,23
47.3895,26
47.4081,29
47.4267,26
47.4452,24
47.4638,25
47.4824,20
47.5010,22
47.5195,20
47.5381,16
47.5567,24
47.5753,28
47.5939,24
47.6124,28
47.6310,26
47.6496,30
47.6682,28
47.6867,25
47.7053,30
47.7239,24
47.7425,27
47.7610,29
47.7796,20
47.7982,23
47.8168,23
47.8353,20
47.8539,17
47.8725,23
47.8911,26
47.9096,18
47.9282,26
47.9468,30
47.9654,26
47.9839,20
48.0025,29
48.0211,24
48.0397,24
48.0582,23
48.0768,25
48.0954,22
48.1140,17
48.1325,27
48.1511,28
48.1697,21
48.1883,27
48.2068,29
48.2254,30
48.2440,19
48.2626,12
48.2811,27
48.2997,16
48.3183,13
48.3369,35
48.3555,36
48.3740,24
48.3926,29
48.4112,18
48.4298,20
48.4483,23
48.4669,18
48.4855,23
48.5041,12
48.5226,26
48.5412,21
48.5598,19
48.5784,23
48.5969,26
48.6155,28
48.6341,18
48.6527,16
48.6712,23
48.6898,20
48.7084,24
48.7270,25
48.7455,17
48.7641,23
48.7827,23
48.8013,20
48.8198,13
48.8384,25
48.8570,26
48.8756,28
48.8941,23
48.9127,36
48.9313,33
48.9499,46
48.9684,56
48.9870,31
49.0056,36
49.0242,25
49.0427,31
49.0613,31
49.0799,35
49.0985,30
49.1171,25
49.1356,20
49.1542,27
49.1728,23
49.1914,18
49.2099,21
49.2285,20
49.2471,21
49.2657,23
49.2842,29
49.3028,20
49.3214,23
49.3400,21
49.3585,23
49.3771,19
49.3957,18
49.4143,25
49.4328,25
49.4514,14
49.4700,24
49.4886,19
49.5071,18
49.5257,22
49.5443,24
49.5629,15
49.5814,20
49.6000,21
49.6186,22
49.6372,20
49.6557,26
49.6743,27
49.6929,16
49.7115,21
49.7300,25
49.7486,28
49.7672,24
49.7858,20
49.8043,18
49.8229,32
49.8415,25
49.8601,17
49.8786,20
49.8972,26
49.9158,21
49.9344,25
49.9530,21
49.9715,17
49.9901,17
50.0087,19
50.0273,18
50.0458,15
50.0644,22
50.0830,23
50.1016,28
50.1201,28
50.1387,21
50.1573,14
50.1759,28
50.1944,33
50.2130,31
50.2316,22
50.2502,24
50.2687,26
50.2873,19
50.3059,24
50.3245,25
50.3430,18
50.3616,20
50.3802,30
50.3988,20
50.4173,23
50.4359,23
50.4545,28
50.4731,31
50.4916,27
50.5102,21
50.5288,20
50.5474,16
50.5659,25
50.5845,18
50.6031,27
50.6217,37
50.6402,22
50.6588,23
50.6774,28
50.6960,23
50.7146,16
50.7331,19
50.7517,24
50.7703,16
50.7889,16
50.8074,34
50.8260,22
50.8446,13
50.8632,16
50.8817,20
50.9003,21
50.9189,18
50.9375,24
50.9560,16
50.9746,25
50.9932,24
51.0118,17
51.0303,27
51.0489,29
51.0675,19
51.0861,25
51.1046,21
51.1232,22
51.1418,24
51.1604,21
51.1789,18
51.1975,21
51.2161,29
51.2347,19
51.2532,23
51.2718,21
51.2904,10
51.3090,18
51.3275,24
51.3461,25
51.3647,16
51.3833,23
51.4018,23
51.4204,25
51.4390,25
51.4576,21
51.4762,22
51.4947,22
51.5133,22
51.5319,19
51.5505,15
51.5690,31
51.5876,23
51.6062,24
51.6248,32
51.6433,26
51.6619,16
51.6805,24
51.6991,16
51.7176,29
51.7362,25
51.7548,28
51.7734,25
51.7919,27
51.8105,26
51.8291,30
51.8477,18
51.8662,32
51.8848,24
51.9034,22
51.9220,24
51.9405,20
51.9591,27
51.9777,32
51.9963,31
52.0148,19
52.0334,18
52.0520,21
52.0706,22
52.0891,19
52.1077,20
52.1263,19
52.1449,16
52.1634,29
52.1820,21
52.2006,26
52.2192,27
52.2378,17
52.2563,17
52.2749,12
52.2935,18
52.3121,27
52.3306,27
52.3492,16
52.3678,26
52.3864,24
52.4049,20
52.4235,19
52.4421,22
52.4607,25
52.4792,13
52.4978,29
52.5164,21
52.5350,19
52.5535,18
52.5721,18
52.5907,21
52.6093,22
52.6278,19
52.6464,21
52.6650,16
52.6836,22
52.7021,21
52.7207,17
52.7393,22
52.7579,23
52.7764,25
52.7950,26
52.8136,28
52.8322,22
52.8507,22
52.8693,29
52.8879,29
52.9065,20
52.9250,23
52.9436,22
52.9622,23
52.9808,23
52.9994,25
53.0179,28
53.0365,22
53.0551,15
53.0737,23
53.0922,18
53.1108,22
53.1294,24
53.1480,27
53.1665,23
53.1851,22
53.2037,16
53.2223,27
53.2408,25
53.2594,22
53.2780,16
53.2966,21
53.3151,25
53.3337,34
53.3523,18
53.3709,26
53.3894,21
53.4080,24
53.4266,28
53.4452,17
53.4637,19
53.4823,20
53.5009,18
53.5195,27
53.5380,28
53.5566,28
53.5752,24
53.5938,16
53.6123,18
53.6309,36
53.6495,17
53.6681,24
53.6866,24
53.7052,20
53.7238,28
53.7424,24
53.7610,18
53.7795,23
53.7981,25
53.8167,16
53.8353,31
53.8538,18
53.8724,21
53.8910,19
53.9096,29
53.9281,20
53.9467,27
53.9653,22
53.9839,36
54.0024,33
54.0210,27
54.0396,26
54.0582,24
54.0767,24
54.0953,25
54.1139,26
54.1325,29
54.1510,28
54.1696,19
54.1882,19
54.2068,21
54.2253,23
54.2439,19
54.2625,18
54.2811,22
54.2996,27
54.3182,19
54.3368,25
54.3554,15
54.3739,16
54.3925,19
54.4111,18
54.4297,23
54.4482,25
54.4668,23
54.4854,12
54.5040,17
54.5225,13
54.5411,23
54.5597,28
54.5783,19
54.5969,24
54.6154,26
54.6340,22
54.6526,23
54.6712,9
54.6897,20
54.7083,19
54.7269,24
54.7455,17
54.7640,25
54.7826,29
54.8012,19
54.8198,25
54.8383,21
54.8569,15
54.8755,19
54.8941,27
54.9126,22
54.9312,21
54.9498,24
54.9684,19
54.9869,15
55.0055,21
55.0241,32
55.0427,24
55.0612,21
55.0798,29
55.0984,18
55.1170,22
55.1355,19
55.1541,15
55.1727,27
55.1913,20
55.2098,23
55.2284,17
55.2470,16
55.2656,20
55.2841,30
55.3027,13
55.3213,20
55.3399,17
55.3585,18
55.3770,26
55.3956,24
55.4142,26
55.4328,14
55.4513,20
55.4699,22
55.4885,27
55.5071,18
55.5256,23
55.5442,15
55.5628,24
55.5814,21
55.5999,23
55.6185,19
55.6371,18
55.6557,21
55.6742,25
55.6928,21
55.7114,15
55.7300,22
55.7485,13
55.7671,18
55.7857,16
55.8043,24
55.8228,25
55.8414,19
55.8600,25
55.8786,20
55.8971,24
55.9157,20
55.9343,16
55.9529,29
55.9714,25
55.9900,27
56.0086,19
56.0272,16
56.0457,13
56.0643,20
56.0829,14
56.1015,13
56.1201,22
56.1386,14
56.1572,21
56.1758,25
56.1944,33
56.2129,22
56.2315,21
56.2501,21
56.2687,22
56.2872,27
56.3058,9
56.3244,31
56.3430,23
56.3615,21
56.3801,17
56.3987,26
56.4173,19
56.4358,22
56.4544,19
56.4730,30
56.4916,20
56.5101,20
56.5287,24
56.5473,20
56.5659,23
56.5844,21
56.6030,22
56.6216,27
56.6402,13
56.6587,28
56.6773,19
56.6959,25
56.7145,24
56.7330,20
56.7516,17
56.7702,20
56.7888,13
56.8073,20
56.8259,23
56.8445,19
56.8631,20
56.8817,19
56.9002,26
56.9188,18
56.9374,21
56.9560,14
56.9745,19
56.9931,15
57.0117,18
57.0303,23
57.0488,34
57.0674,25
57.0860,18
57.1046,16
57.1231,18
57.1417,17
57.1603,24
57.1789,31
57.1974,18
57.2160,21
57.2346,16
57.2532,32
57.2717,24
57.2903,24
57.3089,23
57.3275,22
57.3460,22
57.3646,21
57.3832,35
57.4018,21
57.4203,20
57.4389,25
57.4575,25
57.4761,20
57.4946,25
57.5132,20
57.5318,22
57.5504,15
57.5689,19
57.5875,21
57.6061,24
57.6247,23
57.6433,28
57.6618,15
57.6804,18
57.6990,14
57.7176,12
57.7361,34
57.7547,19
57.7733,17
57.7919,27
57.8104,23
57.8290,30
57.8476,30
57.8662,21
57.8847,22
57.9033,19
57.9219,22
57.9405,20
57.9590,16
57.9776,17
57.9962,24
58.0148,24
58.0333,18
58.0519,18
58.0705,18
58.0891,21
58.1076,10
58.1262,17
58.1448,16
58.1634,25
58.1819,21
58.2005,24
58.2191,21
58.2377,24
58.2562,10
58.2748,26
58.2934,20
58.3120,20
58.3305,19
58.3491,17
58.3677,18
58.3863,19
58.4049,20
58.4234,23
58.4420,19
58.4606,25
58.4792,25
58.4977,16
58.5163,20
58.5349,21
58.5535,14
58.5720,23
58.5906,19
58.6092,17
58.6278,21
58.6463,15
58.6649,20
58.6835,14
58.7021,18
58.7206,28
58.7392,24
58.7578,15
58.7764,19
58.7949,24
58.8135,19
58.8321,28
58.8507,20
58.8692,18
58.8878,28
58.9064,23
58.9250,20
58.9435,17
58.9621,27
58.9807,19
58.9993,20
59.0178,23
59.0364,19
59.0550,22
59.0736,21
59.0921,14
59.1107,17
59.1293,16
59.1479,22
59.1664,26
59.1850,23
59.2036,22
59.2222,21
59.2408,16
59.2593,22
59.2779,20
59.2965,19
59.3151,25
59.3336,24
59.3522,19
59.3708,15
59.3894,26
59.4079,16
59.4265,22
59.4451,24
59.4637,25
59.4822,17
59.5008,21
59.5194,23
59.5380,20
59.5565,15
59.5751,20
59.5937,31
59.6123,20
59.6308,22
59.6494,15
59.6680,17
59.6866,16
59.7051,15
59.7237,17
59.7423,25
59.7609,24
59.7794,23
59.7980,19
59.8166,15
59.8352,22
59.8537,17
59.8723,19
59.8909,17
59.9095,20
59.9280,13
59.9466,22
59.9652,29
59.9838,21
60.0024,23
