; (content of file Y:\Sam\Apurva-07-20-2022\puck1\ML_20220721_11_SJD_0_LaB6-4min.raw)
_FILEVERSION = 3
_SAMPLE = ML_20220721_11_SJD_0_LaB6-4min
_+SAMPLE = 
_SITE = USA
_USER = Administrator
_GONIOMETER_CODE = 20
; Goniometer : D8 theta/2theta, stage : Unknown
_ATTACHMENTS_CODE = 0
_GONIOMETER_RADIUS = 200.5
_FIXED_DIVSLIT = 0.6
_FIXED_SAMPLESLIT = 0
_SOLLER_SLITS = 2
_FIXED_DETSLIT = 9.55
_MONOCHROMATOR = 0
; Incident beam monochromator : None
_SOLLER_SLITS_2 = N
_THIN_FILM = N
_BETA_FILTER = Y
_FIXED_ANTISLIT = 5.89
_ANALYZER_CODE = 0
; Received beam analyzer : None
_DATEMEASURED = "25-Jul-2022 14:41:55"
_WL_UNIT = A
_WL1 = 1.5406
_WL2 = 1.54439
_WL3 = 1.39222
_WLRATIO = 0.5
_ANODE = Cu
_V4_INF_CREATOR = XRDWizard
_V4_INF_CREATOR_VERSION = V2.9.0.22
_V4_INF_WIZARD_VERSION = V2.9.0.22
_V4_INF_WIZARD_ADDINS = V2.9.0.22
_V4_INF_WIZARD_DOCTYPE = XRD
_V4_INF_OSUSER = McQueenLab
_V4_INF_USER = Administrator
_V4_INF_SITE = USA
_V4_INF_SAMPLEID = ML_20220721_11_SJD_0_LaB6-4min

; Data for range 1
_DRIVE = COUPLED
_STEPTIME = 11.28
_STEPSIZE = 0.0185756
_STEPMODE = C
_START = 5
_THETA = 2.5
_2THETA = 5
_KHI = 0
_PHI = 0
_X = 0
_Y = 0
_Z = 0
_DETECTOR = 5
; Detector type : Unknown
_DETECTORSLIT = unkn
_AUX1 = 0
_AUX2 = 0
_AUX3 = 0
_TIMESTARTED = 16
_TEMP_RATE = -1
_TEMP_DELAY = -1
_KV = 40
_MA = 40
_RANGE_WL = 1.5406
_3DPLANE = 0
_V4_ADDITIONALDETECTOR = 257
_V4_PSD2THETA = 3.3924
_V4_PSDCHANNEL1 = 0
_V4_PSDAPERTURE = 12.68
_V4_PSDTYPE = 5
_V4_PSDFIXED = 0
_V4_COUNTERS_MASK = 4096
_V4_DRIVES_MASK = 0
_V4_ENCODERS_MASK = 0
_2THETACOUNTS = 1
; 2THETA  PSD
   5.0000        288
   5.0186        256
   5.0372        225
   5.0557        245
   5.0743        256
   5.0929        217
   5.1115        217
   5.1300        251
   5.1486        222
   5.1672        245
   5.1858        220
   5.2043        209
   5.2229        234
   5.2415        216
   5.2601        225
   5.2786        212
   5.2972        244
   5.3158        241
   5.3344        206
   5.3529        262
   5.3715        222
   5.3901        192
   5.4087        228
   5.4272        213
   5.4458        212
   5.4644        215
   5.4830        206
   5.5015        232
   5.5201        205
   5.5387        213
   5.5573        214
   5.5758        229
   5.5944        235
   5.6130        207
   5.6316        199
   5.6501        221
   5.6687        211
   5.6873        213
   5.7059        193
   5.7244        184
   5.7430        209
   5.7616        195
   5.7802        195
   5.7988        170
   5.8173        193
   5.8359        196
   5.8545        211
   5.8731        184
   5.8916        171
   5.9102        226
   5.9288        183
   5.9474        219
   5.9659        156
   5.9845        185
   6.0031        184
   6.0217        179
   6.0402        195
   6.0588        195
   6.0774        201
   6.0960        190
   6.1145        196
   6.1331        155
   6.1517        179
   6.1703        193
   6.1888        189
   6.2074        162
   6.2260        184
   6.2446        186
   6.2631        188
   6.2817        196
   6.3003        154
   6.3189        155
   6.3374        175
   6.3560        172
   6.3746        189
   6.3932        176
   6.4117        174
   6.4303        192
   6.4489        187
   6.4675        198
   6.4860        167
   6.5046        193
   6.5232        189
   6.5418        192
   6.5604        184
   6.5789        160
   6.5975        167
   6.6161        165
   6.6347        166
   6.6532        173
   6.6718        191
   6.6904        166
   6.7090        151
   6.7275        169
   6.7461        156
   6.7647        163
   6.7833        157
   6.8018        180
   6.8204        162
   6.8390        185
   6.8576        154
   6.8761        157
   6.8947        153
   6.9133        154
   6.9319        164
   6.9504        157
   6.9690        142
   6.9876        137
   7.0062        147
   7.0247        157
   7.0433        156
   7.0619        151
   7.0805        153
   7.0990        172
   7.1176        166
   7.1362        172
   7.1548        158
   7.1733        170
   7.1919        151
   7.2105        146
   7.2291        164
   7.2476        161
   7.2662        153
   7.2848        167
   7.3034        147
   7.3220        171
   7.3405        160
   7.3591        161
   7.3777        162
   7.3963        159
   7.4148        158
   7.4334        155
   7.4520        186
   7.4706        176
   7.4891        154
   7.5077        152
   7.5263        159
   7.5449        178
   7.5634        154
   7.5820        183
   7.6006        176
   7.6192        173
   7.6377        170
   7.6563        179
   7.6749        192
   7.6935        157
   7.7120        193
   7.7306        172
   7.7492        182
   7.7678        171
   7.7863        170
   7.8049        182
   7.8235        165
   7.8421        175
   7.8606        171
   7.8792        198
   7.8978        189
   7.9164        191
   7.9349        192
   7.9535        175
   7.9721        178
   7.9907        207
   8.0092        197
   8.0278        179
   8.0464        176
   8.0650        176
   8.0835        169
   8.1021        178
   8.1207        181
   8.1393        183
   8.1579        192
   8.1764        198
   8.1950        205
   8.2136        234
   8.2322        169
   8.2507        168
   8.2693        177
   8.2879        179
   8.3065        220
   8.3250        188
   8.3436        217
   8.3622        182
   8.3808        186
   8.3993        189
   8.4179        209
   8.4365        209
   8.4551        201
   8.4736        166
   8.4922        196
   8.5108        197
   8.5294        229
   8.5479        183
   8.5665        205
   8.5851        184
   8.6037        194
   8.6222        196
   8.6408        192
   8.6594        209
   8.6780        189
   8.6965        223
   8.7151        227
   8.7337        196
   8.7523        201
   8.7708        183
   8.7894        210
   8.8080        186
   8.8266        230
   8.8451        202
   8.8637        218
   8.8823        202
   8.9009        210
   8.9195        218
   8.9380        235
   8.9566        233
   8.9752        191
   8.9938        241
   9.0123        217
   9.0309        257
   9.0495        226
   9.0681        232
   9.0866        183
   9.1052        209
   9.1238        222
   9.1424        206
   9.1609        205
   9.1795        236
   9.1981        228
   9.2167        241
   9.2352        208
   9.2538        257
   9.2724        214
   9.2910        235
   9.3095        210
   9.3281        222
   9.3467        240
   9.3653        189
   9.3838        205
   9.4024        213
   9.4210        204
   9.4396        261
   9.4581        221
   9.4767        246
   9.4953        240
   9.5139        241
   9.5324        228
   9.5510        233
   9.5696        231
   9.5882        224
   9.6067        269
   9.6253        222
   9.6439        236
   9.6625        225
   9.6811        233
   9.6996        205
   9.7182        232
   9.7368        223
   9.7554        236
   9.7739        238
   9.7925        220
   9.8111        243
   9.8297        229
   9.8482        233
   9.8668        253
   9.8854        272
   9.9040        260
   9.9225        234
   9.9411        223
   9.9597        211
   9.9783        285
   9.9968        253
  10.0154        265
  10.0340        232
  10.0526        214
  10.0711        231
  10.0897        231
  10.1083        222
  10.1269        235
  10.1454        300
  10.1640        240
  10.1826        277
  10.2012        221
  10.2197        240
  10.2383        236
  10.2569        270
  10.2755        267
  10.2940        257
  10.3126        231
  10.3312        291
  10.3498        244
  10.3683        291
  10.3869        254
  10.4055        230
  10.4241        204
  10.4427        258
  10.4612        286
  10.4798        229
  10.4984        215
  10.5170        230
  10.5355        245
  10.5541        202
  10.5727        255
  10.5913        233
  10.6098        254
  10.6284        252
  10.6470        224
  10.6656        236
  10.6841        250
  10.7027        215
  10.7213        224
  10.7399        223
  10.7584        265
  10.7770        236
  10.7956        240
  10.8142        259
  10.8327        218
  10.8513        242
  10.8699        252
  10.8885        261
  10.9070        264
  10.9256        266
  10.9442        274
  10.9628        243
  10.9813        247
  10.9999        227
  11.0185        241
  11.0371        275
  11.0556        219
  11.0742        244
  11.0928        219
  11.1114        231
  11.1299        235
  11.1485        249
  11.1671        230
  11.1857        216
  11.2043        251
  11.2228        237
  11.2414        251
  11.2600        246
  11.2786        231
  11.2971        261
  11.3157        212
  11.3343        258
  11.3529        259
  11.3714        231
  11.3900        250
  11.4086        219
  11.4272        229
  11.4457        239
  11.4643        283
  11.4829        229
  11.5015        228
  11.5200        227
  11.5386        258
  11.5572        240
  11.5758        212
  11.5943        224
  11.6129        238
  11.6315        249
  11.6501        275
  11.6686        250
  11.6872        255
  11.7058        261
  11.7244        251
  11.7429        253
  11.7615        221
  11.7801        235
  11.7987        236
  11.8172        246
  11.8358        251
  11.8544        236
  11.8730        237
  11.8915        226
  11.9101        232
  11.9287        243
  11.9473        226
  11.9659        221
  11.9844        250
  12.0030        224
  12.0216        220
  12.0402        219
  12.0587        255
  12.0773        237
  12.0959        222
  12.1145        254
  12.1330        245
  12.1516        198
  12.1702        230
  12.1888        233
  12.2073        217
  12.2259        240
  12.2445        232
  12.2631        233
  12.2816        210
  12.3002        235
  12.3188        218
  12.3374        215
  12.3559        216
  12.3745        219
  12.3931        210
  12.4117        236
  12.4302        203
  12.4488        241
  12.4674        225
  12.4860        235
  12.5045        205
  12.5231        217
  12.5417        234
  12.5603        199
  12.5788        239
  12.5974        206
  12.6160        230
  12.6346        220
  12.6531        226
  12.6717        192
  12.6903        216
  12.7089        202
  12.7274        213
  12.7460        181
  12.7646        198
  12.7832        211
  12.8018        205
  12.8203        199
  12.8389        222
  12.8575        212
  12.8761        211
  12.8946        238
  12.9132        229
  12.9318        191
  12.9504        209
  12.9689        201
  12.9875        217
  13.0061        227
  13.0247        224
  13.0432        218
  13.0618        206
  13.0804        200
  13.0990        191
  13.1175        207
  13.1361        211
  13.1547        206
  13.1733        224
  13.1918        200
  13.2104        218
  13.2290        196
  13.2476        183
  13.2661        217
  13.2847        179
  13.3033        205
  13.3219        195
  13.3404        202
  13.3590        210
  13.3776        198
  13.3962        172
  13.4147        204
  13.4333        199
  13.4519        180
  13.4705        214
  13.4890        186
  13.5076        188
  13.5262        206
  13.5448        186
  13.5634        215
  13.5819        206
  13.6005        208
  13.6191        194
  13.6377        181
  13.6562        182
  13.6748        188
  13.6934        190
  13.7120        179
  13.7305        189
  13.7491        189
  13.7677        201
  13.7863        182
  13.8048        213
  13.8234        181
  13.8420        204
  13.8606        161
  13.8791        186
  13.8977        179
  13.9163        194
  13.9349        171
  13.9534        175
  13.9720        167
  13.9906        185
  14.0092        188
  14.0277        188
  14.0463        207
  14.0649        188
  14.0835        194
  14.1020        182
  14.1206        157
  14.1392        172
  14.1578        182
  14.1763        170
  14.1949        167
  14.2135        184
  14.2321        177
  14.2506        210
  14.2692        155
  14.2878        172
  14.3064        172
  14.3250        177
  14.3435        186
  14.3621        202
  14.3807        183
  14.3993        179
  14.4178        193
  14.4364        206
  14.4550        180
  14.4736        150
  14.4921        159
  14.5107        190
  14.5293        183
  14.5479        173
  14.5664        158
  14.5850        160
  14.6036        168
  14.6222        175
  14.6407        166
  14.6593        167
  14.6779        193
  14.6965        184
  14.7150        177
  14.7336        161
  14.7522        160
  14.7708        187
  14.7893        159
  14.8079        187
  14.8265        184
  14.8451        162
  14.8636        180
  14.8822        172
  14.9008        163
  14.9194        150
  14.9379        155
  14.9565        152
  14.9751        162
  14.9937        167
  15.0122        157
  15.0308        157
  15.0494        175
  15.0680        148
  15.0866        175
  15.1051        159
  15.1237        181
  15.1423        185
  15.1609        166
  15.1794        153
  15.1980        188
  15.2166        171
  15.2352        160
  15.2537        161
  15.2723        160
  15.2909        185
  15.3095        155
  15.3280        174
  15.3466        200
  15.3652        182
  15.3838        181
  15.4023        154
  15.4209        190
  15.4395        162
  15.4581        172
  15.4766        188
  15.4952        182
  15.5138        194
  15.5324        160
  15.5509        166
  15.5695        154
  15.5881        170
  15.6067        173
  15.6252        168
  15.6438        160
  15.6624        153
  15.6810        170
  15.6995        175
  15.7181        170
  15.7367        173
  15.7553        161
  15.7738        172
  15.7924        178
  15.8110        166
  15.8296        148
  15.8482        151
  15.8667        149
  15.8853        163
  15.9039        178
  15.9225        162
  15.9410        148
  15.9596        187
  15.9782        155
  15.9968        172
  16.0153        174
  16.0339        185
  16.0525        173
  16.0711        164
  16.0896        146
  16.1082        160
  16.1268        147
  16.1454        147
  16.1639        175
  16.1825        167
  16.2011        192
  16.2197        143
  16.2382        170
  16.2568        178
  16.2754        152
  16.2940        151
  16.3125        161
  16.3311        161
  16.3497        165
  16.3683        160
  16.3868        147
  16.4054        168
  16.4240        174
  16.4426        164
  16.4611        177
  16.4797        156
  16.4983        148
  16.5169        162
  16.5354        181
  16.5540        144
  16.5726        169
  16.5912        147
  16.6097        170
  16.6283        169
  16.6469        141
  16.6655        162
  16.6841        168
  16.7026        167
  16.7212        156
  16.7398        174
  16.7584        172
  16.7769        149
  16.7955        169
  16.8141        138
  16.8327        167
  16.8512        153
  16.8698        164
  16.8884        171
  16.9070        159
  16.9255        175
  16.9441        180
  16.9627        160
  16.9813        157
  16.9998        142
  17.0184        161
  17.0370        167
  17.0556        174
  17.0741        149
  17.0927        180
  17.1113        182
  17.1299        169
  17.1484        189
  17.1670        179
  17.1856        159
  17.2042        164
  17.2227        155
  17.2413        161
  17.2599        185
  17.2785        165
  17.2970        176
  17.3156        159
  17.3342        178
  17.3528        146
  17.3713        165
  17.3899        154
  17.4085        172
  17.4271        159
  17.4457        163
  17.4642        164
  17.4828        157
  17.5014        153
  17.5200        162
  17.5385        183
  17.5571        185
  17.5757        160
  17.5943        158
  17.6128        165
  17.6314        188
  17.6500        188
  17.6686        173
  17.6871        171
  17.7057        180
  17.7243        163
  17.7429        154
  17.7614        155
  17.7800        171
  17.7986        163
  17.8172        141
  17.8357        160
  17.8543        145
  17.8729        180
  17.8915        183
  17.9100        162
  17.9286        153
  17.9472        160
  17.9658        186
  17.9843        181
  18.0029        157
  18.0215        183
  18.0401        155
  18.0586        163
  18.0772        176
  18.0958        180
  18.1144        171
  18.1329        164
  18.1515        171
  18.1701        148
  18.1887        149
  18.2073        164
  18.2258        173
  18.2444        173
  18.2630        172
  18.2816        145
  18.3001        163
  18.3187        191
  18.3373        164
  18.3559        178
  18.3744        165
  18.3930        164
  18.4116        173
  18.4302        160
  18.4487        175
  18.4673        165
  18.4859        159
  18.5045        178
  18.5230        147
  18.5416        184
  18.5602        178
  18.5788        173
  18.5973        171
  18.6159        161
  18.6345        167
  18.6531        177
  18.6716        184
  18.6902        176
  18.7088        180
  18.7274        160
  18.7459        170
  18.7645        198
  18.7831        180
  18.8017        162
  18.8202        167
  18.8388        170
  18.8574        159
  18.8760        174
  18.8945        176
  18.9131        167
  18.9317        153
  18.9503        164
  18.9689        158
  18.9874        171
  19.0060        182
  19.0246        178
  19.0432        175
  19.0617        180
  19.0803        148
  19.0989        171
  19.1175        168
  19.1360        166
  19.1546        166
  19.1732        169
  19.1918        176
  19.2103        160
  19.2289        159
  19.2475        152
  19.2661        179
  19.2846        171
  19.3032        181
  19.3218        173
  19.3404        203
  19.3589        163
  19.3775        167
  19.3961        168
  19.4147        174
  19.4332        167
  19.4518        189
  19.4704        193
  19.4890        178
  19.5075        189
  19.5261        194
  19.5447        186
  19.5633        184
  19.5818        190
  19.6004        169
  19.6190        173
  19.6376        169
  19.6561        183
  19.6747        181
  19.6933        178
  19.7119        161
  19.7305        176
  19.7490        178
  19.7676        180
  19.7862        199
  19.8048        165
  19.8233        156
  19.8419        168
  19.8605        170
  19.8791        171
  19.8976        164
  19.9162        192
  19.9348        202
  19.9534        174
  19.9719        199
  19.9905        174
  20.0091        200
  20.0277        186
  20.0462        205
  20.0648        203
  20.0834        181
  20.1020        195
  20.1205        186
  20.1391        186
  20.1577        178
  20.1763        169
  20.1948        186
  20.2134        181
  20.2320        187
  20.2506        150
  20.2691        198
  20.2877        177
  20.3063        176
  20.3249        208
  20.3434        181
  20.3620        185
  20.3806        193
  20.3992        206
  20.4177        182
  20.4363        174
  20.4549        182
  20.4735        178
  20.4921        203
  20.5106        182
  20.5292        190
  20.5478        202
  20.5664        184
  20.5849        197
  20.6035        179
  20.6221        166
  20.6407        178
  20.6592        172
  20.6778        165
  20.6964        183
  20.7150        199
  20.7335        160
  20.7521        167
  20.7707        176
  20.7893        196
  20.8078        161
  20.8264        190
  20.8450        194
  20.8636        214
  20.8821        159
  20.9007        180
  20.9193        205
  20.9379        196
  20.9564        198
  20.9750        186
  20.9936        199
  21.0122        182
  21.0307        171
  21.0493        197
  21.0679        198
  21.0865        203
  21.1050        208
  21.1236        191
  21.1422        219
  21.1608        227
  21.1793        214
  21.1979        212
  21.2165        243
  21.2351        262
  21.2537        313
  21.2722        346
  21.2908        299
  21.3094        299
  21.3280        315
  21.3465        354
  21.3651        349
  21.3837        412
  21.4023        497
  21.4208        435
  21.4394        380
  21.4580        345
  21.4766        318
  21.4951        259
  21.5137        230
  21.5323        201
  21.5509        212
  21.5694        212
  21.5880        188
  21.6066        204
  21.6252        181
  21.6437        215
  21.6623        204
  21.6809        193
  21.6995        201
  21.7180        204
  21.7366        176
  21.7552        223
  21.7738        151
  21.7923        206
  21.8109        182
  21.8295        209
  21.8481        190
  21.8666        200
  21.8852        187
  21.9038        222
  21.9224        205
  21.9409        199
  21.9595        195
  21.9781        217
  21.9967        198
  22.0152        190
  22.0338        183
  22.0524        194
  22.0710        200
  22.0896        182
  22.1081        196
  22.1267        190
  22.1453        189
  22.1639        189
  22.1824        189
  22.2010        205
  22.2196        203
  22.2382        208
  22.2567        225
  22.2753        190
  22.2939        203
  22.3125        213
  22.3310        194
  22.3496        214
  22.3682        194
  22.3868        175
  22.4053        202
  22.4239        177
  22.4425        201
  22.4611        207
  22.4796        198
  22.4982        187
  22.5168        225
  22.5354        177
  22.5539        197
  22.5725        205
  22.5911        206
  22.6097        195
  22.6282        186
  22.6468        204
  22.6654        183
  22.6840        199
  22.7025        218
  22.7211        188
  22.7397        206
  22.7583        217
  22.7768        198
  22.7954        208
  22.8140        193
  22.8326        205
  22.8512        205
  22.8697        203
  22.8883        208
  22.9069        170
  22.9255        204
  22.9440        184
  22.9626        224
  22.9812        186
  22.9998        211
  23.0183        195
  23.0369        201
  23.0555        211
  23.0741        200
  23.0926        227
  23.1112        211
  23.1298        218
  23.1484        191
  23.1669        201
  23.1855        200
  23.2041        210
  23.2227        183
  23.2412        217
  23.2598        181
  23.2784        200
  23.2970        202
  23.3155        164
  23.3341        217
  23.3527        225
  23.3713        217
  23.3898        202
  23.4084        198
  23.4270        199
  23.4456        192
  23.4641        187
  23.4827        184
  23.5013        193
  23.5199        216
  23.5384        196
  23.5570        219
  23.5756        227
  23.5942        201
  23.6128        220
  23.6313        209
  23.6499        216
  23.6685        206
  23.6871        189
  23.7056        211
  23.7242        180
  23.7428        223
  23.7614        196
  23.7799        228
  23.7985        197
  23.8171        188
  23.8357        200
  23.8542        215
  23.8728        210
  23.8914        221
  23.9100        205
  23.9285        213
  23.9471        184
  23.9657        169
  23.9843        233
  24.0028        208
  24.0214        191
  24.0400        210
  24.0586        216
  24.0771        175
  24.0957        187
  24.1143        214
  24.1329        219
  24.1514        202
  24.1700        196
  24.1886        209
  24.2072        203
  24.2257        219
  24.2443        191
  24.2629        233
  24.2815        208
  24.3000        199
  24.3186        213
  24.3372        251
  24.3558        216
  24.3744        232
  24.3929        218
  24.4115        220
  24.4301        214
  24.4487        216
  24.4672        193
  24.4858        224
  24.5044        208
  24.5230        205
  24.5415        225
  24.5601        193
  24.5787        199
  24.5973        205
  24.6158        190
  24.6344        239
  24.6530        178
  24.6716        191
  24.6901        195
  24.7087        178
  24.7273        178
  24.7459        172
  24.7644        174
  24.7830        206
  24.8016        180
  24.8202        197
  24.8387        196
  24.8573        205
  24.8759        219
  24.8945        196
  24.9130        175
  24.9316        195
  24.9502        162
  24.9688        184
  24.9873        200
  25.0059        204
  25.0245        180
  25.0431        184
  25.0616        193
  25.0802        217
  25.0988        209
  25.1174        183
  25.1360        215
  25.1545        185
  25.1731        210
  25.1917        217
  25.2103        207
  25.2288        201
  25.2474        196
  25.2660        177
  25.2846        211
  25.3031        193
  25.3217        182
  25.3403        199
  25.3589        193
  25.3774        212
  25.3960        199
  25.4146        224
  25.4332        181
  25.4517        206
  25.4703        203
  25.4889        187
  25.5075        191
  25.5260        214
  25.5446        194
  25.5632        205
  25.5818        184
  25.6003        204
  25.6189        205
  25.6375        194
  25.6561        189
  25.6746        176
  25.6932        202
  25.7118        196
  25.7304        178
  25.7489        205
  25.7675        200
  25.7861        192
  25.8047        210
  25.8232        196
  25.8418        174
  25.8604        221
  25.8790        215
  25.8976        183
  25.9161        191
  25.9347        214
  25.9533        173
  25.9719        211
  25.9904        185
  26.0090        215
  26.0276        184
  26.0462        179
  26.0647        179
  26.0833        175
  26.1019        179
  26.1205        208
  26.1390        198
  26.1576        196
  26.1762        208
  26.1948        195
  26.2133        215
  26.2319        181
  26.2505        193
  26.2691        162
  26.2876        187
  26.3062        191
  26.3248        159
  26.3434        187
  26.3619        214
  26.3805        187
  26.3991        189
  26.4177        177
  26.4362        184
  26.4548        190
  26.4734        193
  26.4920        182
  26.5105        190
  26.5291        202
  26.5477        198
  26.5663        199
  26.5848        169
  26.6034        193
  26.6220        199
  26.6406        198
  26.6591        192
  26.6777        193
  26.6963        200
  26.7149        178
  26.7335        187
  26.7520        174
  26.7706        183
  26.7892        197
  26.8078        191
  26.8263        200
  26.8449        193
  26.8635        181
  26.8821        206
  26.9006        173
  26.9192        217
  26.9378        216
  26.9564        203
  26.9749        171
  26.9935        170
  27.0121        199
  27.0307        189
  27.0492        191
  27.0678        193
  27.0864        196
  27.1050        194
  27.1235        170
  27.1421        198
  27.1607        188
  27.1793        189
  27.1978        220
  27.2164        225
  27.2350        223
  27.2536        275
  27.2721        235
  27.2907        248
  27.3093        220
  27.3279        214
  27.3464        198
  27.3650        217
  27.3836        199
  27.4022        161
  27.4207        194
  27.4393        176
  27.4579        194
  27.4765        196
  27.4951        188
  27.5136        177
  27.5322        170
  27.5508        202
  27.5694        192
  27.5879        182
  27.6065        187
  27.6251        179
  27.6437        176
  27.6622        176
  27.6808        181
  27.6994        169
  27.7180        196
  27.7365        159
  27.7551        201
  27.7737        178
  27.7923        181
  27.8108        176
  27.8294        161
  27.8480        166
  27.8666        160
  27.8851        170
  27.9037        154
  27.9223        177
  27.9409        150
  27.9594        185
  27.9780        204
  27.9966        184
  28.0152        182
  28.0337        170
  28.0523        182
  28.0709        182
  28.0895        152
  28.1080        177
  28.1266        198
  28.1452        163
  28.1638        171
  28.1823        166
  28.2009        180
  28.2195        169
  28.2381        170
  28.2567        184
  28.2752        158
  28.2938        206
  28.3124        186
  28.3310        174
  28.3495        187
  28.3681        172
  28.3867        151
  28.4053        156
  28.4238        168
  28.4424        182
  28.4610        189
  28.4796        167
  28.4981        178
  28.5167        171
  28.5353        159
  28.5539        142
  28.5724        167
  28.5910        185
  28.6096        176
  28.6282        169
  28.6467        158
  28.6653        166
  28.6839        164
  28.7025        185
  28.7210        154
  28.7396        163
  28.7582        186
  28.7768        168
  28.7953        195
  28.8139        161
  28.8325        158
  28.8511        172
  28.8696        183
  28.8882        168
  28.9068        191
  28.9254        163
  28.9439        165
  28.9625        139
  28.9811        152
  28.9997        168
  29.0183        159
  29.0368        161
  29.0554        155
  29.0740        175
  29.0926        163
  29.1111        156
  29.1297        189
  29.1483        170
  29.1669        169
  29.1854        167
  29.2040        181
  29.2226        180
  29.2412        157
  29.2597        164
  29.2783        179
  29.2969        165
  29.3155        177
  29.3340        181
  29.3526        171
  29.3712        145
  29.3898        180
  29.4083        164
  29.4269        165
  29.4455        167
  29.4641        170
  29.4826        157
  29.5012        147
  29.5198        177
  29.5384        165
  29.5569        148
  29.5755        159
  29.5941        186
  29.6127        167
  29.6312        144
  29.6498        165
  29.6684        148
  29.6870        153
  29.7055        143
  29.7241        182
  29.7427        164
  29.7613        167
  29.7799        153
  29.7984        161
  29.8170        154
  29.8356        167
  29.8542        130
  29.8727        165
  29.8913        167
  29.9099        149
  29.9285        143
  29.9470        141
  29.9656        145
  29.9842        163
  30.0028        173
  30.0213        140
  30.0399        147
  30.0585        159
  30.0771        169
  30.0956        187
  30.1142        162
  30.1328        142
  30.1514        142
  30.1699        155
  30.1885        157
  30.2071        142
  30.2257        166
  30.2442        158
  30.2628        168
  30.2814        171
  30.3000        192
  30.3185        151
  30.3371        185
  30.3557        159
  30.3743        208
  30.3928        224
  30.4114        270
  30.4300        303
  30.4486        291
  30.4671        263
  30.4857        212
  30.5043        253
  30.5229        238
  30.5415        198
  30.5600        161
  30.5786        168
  30.5972        164
  30.6158        186
  30.6343        151
  30.6529        178
  30.6715        163
  30.6901        157
  30.7086        134
  30.7272        160
  30.7458        144
  30.7644        159
  30.7829        150
  30.8015        135
  30.8201        167
  30.8387        159
  30.8572        151
  30.8758        145
  30.8944        131
  30.9130        134
  30.9315        160
  30.9501        150
  30.9687        148
  30.9873        163
  31.0058        168
  31.0244        135
  31.0430        147
  31.0616        151
  31.0801        150
  31.0987        165
  31.1173        127
  31.1359        150
  31.1544        141
  31.1730        162
  31.1916        150
  31.2102        151
  31.2287        129
  31.2473        142
  31.2659        142
  31.2845        143
  31.3030        135
  31.3216        132
  31.3402        125
  31.3588        142
  31.3774        164
  31.3959        121
  31.4145        128
  31.4331        140
  31.4517        140
  31.4702        144
  31.4888        151
  31.5074        154
  31.5260        151
  31.5445        141
  31.5631        110
  31.5817        139
  31.6003        148
  31.6188        133
  31.6374        127
  31.6560        129
  31.6746        138
  31.6931        136
  31.7117        150
  31.7303        133
  31.7489        136
  31.7674        133
  31.7860        144
  31.8046        136
  31.8232        153
  31.8417        155
  31.8603        146
  31.8789        126
  31.8975        119
  31.9160        133
  31.9346        140
  31.9532        125
  31.9718        151
  31.9903        141
  32.0089        128
  32.0275        131
  32.0461        132
  32.0646        137
  32.0832        148
  32.1018        131
  32.1204        122
  32.1390        141
  32.1575        145
  32.1761        133
  32.1947        134
  32.2133        138
  32.2318        163
  32.2504        124
  32.2690        136
  32.2876        129
  32.3061        115
  32.3247        141
  32.3433        145
  32.3619        127
  32.3804        128
  32.3990        141
  32.4176        142
  32.4362        138
  32.4547        117
  32.4733        174
  32.4919        141
  32.5105        155
  32.5290        150
  32.5476        158
  32.5662        159
  32.5848        133
  32.6033        152
  32.6219        149
  32.6405        147
  32.6591        143
  32.6776        118
  32.6962        148
  32.7148        127
  32.7334        126
  32.7519        138
  32.7705        125
  32.7891        129
  32.8077        108
  32.8262        126
  32.8448        150
  32.8634        137
  32.8820        110
  32.9006        106
  32.9191        145
  32.9377        115
  32.9563        111
  32.9749        138
  32.9934        111
  33.0120        119
  33.0306        117
  33.0492        119
  33.0677        124
  33.0863        120
  33.1049        104
  33.1235        113
  33.1420         96
  33.1606        122
  33.1792        128
  33.1978        125
  33.2163        133
  33.2349        116
  33.2535        126
  33.2721        112
  33.2906        108
  33.3092        119
  33.3278        106
  33.3464        113
  33.3649         97
  33.3835        113
  33.4021        122
  33.4207        106
  33.4392        115
  33.4578        144
  33.4764        125
  33.4950        115
  33.5135        107
  33.5321        105
  33.5507        139
  33.5693        131
  33.5878        144
  33.6064        105
  33.6250        139
  33.6436        122
  33.6622        115
  33.6807        122
  33.6993        123
  33.7179        114
  33.7365        124
  33.7550        123
  33.7736        124
  33.7922        113
  33.8108        120
  33.8293        114
  33.8479         96
  33.8665        121
  33.8851        119
  33.9036        113
  33.9222        113
  33.9408        105
  33.9594        109
  33.9779        126
  33.9965        116
  34.0151        116
  34.0337        113
  34.0522        131
  34.0708        111
  34.0894        117
  34.1080        118
  34.1265        122
  34.1451        109
  34.1637        104
  34.1823        102
  34.2008        113
  34.2194        121
  34.2380         95
  34.2566        120
  34.2751         91
  34.2937        123
  34.3123        100
  34.3309        108
  34.3494        119
  34.3680        103
  34.3866        132
  34.4052        113
  34.4238        109
  34.4423        142
  34.4609         99
  34.4795        104
  34.4981        128
  34.5166        102
  34.5352        119
  34.5538        127
  34.5724        114
  34.5909        107
  34.6095        132
  34.6281        129
  34.6467        127
  34.6652        144
  34.6838        131
  34.7024        149
  34.7210        113
  34.7395        137
  34.7581        130
  34.7767        159
  34.7953        171
  34.8138        156
  34.8324        144
  34.8510        139
  34.8696        146
  34.8881        138
  34.9067        136
  34.9253        139
  34.9439        112
  34.9624        102
  34.9810        109
  34.9996        114
  35.0182        113
  35.0367         97
  35.0553        122
  35.0739        101
  35.0925        119
  35.1110        126
  35.1296        118
  35.1482        122
  35.1668         93
  35.1854        110
  35.2039        116
  35.2225        101
  35.2411        101
  35.2597         91
  35.2782        107
  35.2968        103
  35.3154         96
  35.3340        110
  35.3525        123
  35.3711        119
  35.3897         96
  35.4083        105
  35.4268         91
  35.4454        116
  35.4640        116
  35.4826        110
  35.5011        102
  35.5197         86
  35.5383        101
  35.5569        107
  35.5754         98
  35.5940         86
  35.6126        101
  35.6312         99
  35.6497        127
  35.6683        102
  35.6869         98
  35.7055        104
  35.7240        113
  35.7426         94
  35.7612        107
  35.7798         93
  35.7983        106
  35.8169         93
  35.8355        101
  35.8541        102
  35.8726        104
  35.8912         92
  35.9098         83
  35.9284         76
  35.9469        113
  35.9655        106
  35.9841         88
  36.0027        106
  36.0213        105
  36.0398         93
  36.0584        104
  36.0770        103
  36.0956        122
  36.1141        103
  36.1327        112
  36.1513        108
  36.1699         90
  36.1884         83
  36.2070         88
  36.2256         95
  36.2442        100
  36.2627         84
  36.2813        100
  36.2999         99
  36.3185        117
  36.3370         91
  36.3556        105
  36.3742         94
  36.3928         96
  36.4113         93
  36.4299        108
  36.4485        118
  36.4671         99
  36.4856         89
  36.5042        101
  36.5228        115
  36.5414        108
  36.5599         88
  36.5785        108
  36.5971         93
  36.6157         98
  36.6342        101
  36.6528         86
  36.6714         71
  36.6900         81
  36.7085        103
  36.7271        103
  36.7457        104
  36.7643         90
  36.7829        111
  36.8014         95
  36.8200         99
  36.8386         97
  36.8572         85
  36.8757         86
  36.8943         96
  36.9129         98
  36.9315         90
  36.9500         93
  36.9686         96
  36.9872         79
  37.0058         85
  37.0243         96
  37.0429         77
  37.0615         92
  37.0801        101
  37.0986         92
  37.1172        104
  37.1358         90
  37.1544        101
  37.1729         80
  37.1915         81
  37.2101         76
  37.2287        105
  37.2472         89
  37.2658         81
  37.2844         98
  37.3030         74
  37.3215         88
  37.3401         86
  37.3587         88
  37.3773         94
  37.3958         99
  37.4144        104
  37.4330        107
  37.4516        120
  37.4701        161
  37.4887        158
  37.5073        149
  37.5259        121
  37.5445        115
  37.5630        121
  37.5816        115
  37.6002        123
  37.6188        112
  37.6373        110
  37.6559        105
  37.6745         84
  37.6931         93
  37.7116         83
  37.7302         90
  37.7488         90
  37.7674         91
  37.7859         89
  37.8045         82
  37.8231         95
  37.8417         90
  37.8602         96
  37.8788         92
  37.8974         83
  37.9160         83
  37.9345         93
  37.9531         75
  37.9717         82
  37.9903         78
  38.0088         90
  38.0274         83
  38.0460         76
  38.0646         76
  38.0831         82
  38.1017         73
  38.1203         92
  38.1389         63
  38.1574         97
  38.1760         77
  38.1946        103
  38.2132         91
  38.2317         97
  38.2503         89
  38.2689         80
  38.2875         71
  38.3061         88
  38.3246         92
  38.3432         81
  38.3618         83
  38.3804         99
  38.3989         95
  38.4175         96
  38.4361         70
  38.4547         97
  38.4732         85
  38.4918         64
  38.5104         78
  38.5290         87
  38.5475         81
  38.5661         91
  38.5847         92
  38.6033         77
  38.6218         89
  38.6404         88
  38.6590         82
  38.6776         85
  38.6961         98
  38.7147         83
  38.7333         76
  38.7519         75
  38.7704         84
  38.7890         69
  38.8076         78
  38.8262         85
  38.8447         86
  38.8633         72
  38.8819         82
  38.9005         92
  38.9190         89
  38.9376        113
  38.9562         72
  38.9748        104
  38.9933        104
  39.0119         81
  39.0305         80
  39.0491         88
  39.0677         89
  39.0862         99
  39.1048         83
  39.1234         91
  39.1420         92
  39.1605         87
  39.1791         83
  39.1977         84
  39.2163         62
  39.2348         84
  39.2534         79
  39.2720         73
  39.2906         93
  39.3091         66
  39.3277         88
  39.3463         92
  39.3649         85
  39.3834         80
  39.4020         85
  39.4206         85
  39.4392         84
  39.4577         79
  39.4763         74
  39.4949        104
  39.5135         84
  39.5320         86
  39.5506         75
  39.5692         80
  39.5878         81
  39.6063         85
  39.6249         74
  39.6435         73
  39.6621         76
  39.6806         68
  39.6992         77
  39.7178        113
  39.7364         90
  39.7549         79
  39.7735         69
  39.7921         78
  39.8107         83
  39.8293         81
  39.8478         81
  39.8664         88
  39.8850         99
  39.9036         98
  39.9221         71
  39.9407         75
  39.9593         73
  39.9779         75
  39.9964         82
  40.0150         63
  40.0336         76
  40.0522         78
  40.0707         84
  40.0893         73
  40.1079         91
  40.1265         87
  40.1450         68
  40.1636         73
  40.1822         70
  40.2008         80
  40.2193         78
  40.2379         80
  40.2565         75
  40.2751         76
  40.2936         77
  40.3122         85
  40.3308         79
  40.3494         81
  40.3679         73
  40.3865         73
  40.4051         72
  40.4237         89
  40.4422         92
  40.4608         90
  40.4794         95
  40.4980         82
  40.5165         83
  40.5351         68
  40.5537         79
  40.5723         92
  40.5908         78
  40.6094         67
  40.6280         73
  40.6466         86
  40.6652         70
  40.6837         99
  40.7023         75
  40.7209         87
  40.7395         86
  40.7580         65
  40.7766         90
  40.7952         82
  40.8138         80
  40.8323         91
  40.8509         73
  40.8695         79
  40.8881         76
  40.9066         78
  40.9252        102
  40.9438         81
  40.9624         72
  40.9809         93
  40.9995         79
  41.0181         77
  41.0367         94
  41.0552         80
  41.0738         64
  41.0924         92
  41.1110         81
  41.1295         74
  41.1481         77
  41.1667         99
  41.1853         70
  41.2038         65
  41.2224         70
  41.2410         83
  41.2596         65
  41.2781         82
  41.2967         71
  41.3153         76
  41.3339         83
  41.3524         75
  41.3710         82
  41.3896         81
  41.4082         73
  41.4268         77
  41.4453         74
  41.4639         70
  41.4825         64
  41.5011         79
  41.5196         72
  41.5382         81
  41.5568         62
  41.5754         76
  41.5939         81
  41.6125         80
  41.6311         84
  41.6497         80
  41.6682         68
  41.6868         76
  41.7054         72
  41.7240         89
  41.7425         59
  41.7611         66
  41.7797         80
  41.7983         81
  41.8168         87
  41.8354         69
  41.8540         65
  41.8726         72
  41.8911         85
  41.9097         77
  41.9283         72
  41.9469         70
  41.9654         79
  41.9840         77
  42.0026         66
  42.0212         81
  42.0397         75
  42.0583         72
  42.0769         74
  42.0955         77
  42.1140         68
  42.1326         70
  42.1512         77
  42.1698         78
  42.1884         80
  42.2069         69
  42.2255         69
  42.2441         77
  42.2627         91
  42.2812         65
  42.2998         69
  42.3184         70
  42.3370         58
  42.3555         73
  42.3741         82
  42.3927         83
  42.4113         62
  42.4298         85
  42.4484         71
  42.4670         87
  42.4856         74
  42.5041         74
  42.5227         65
  42.5413         63
  42.5599         75
  42.5784         81
  42.5970         77
  42.6156         67
  42.6342         86
  42.6527         85
  42.6713         68
  42.6899         86
  42.7085         75
  42.7270         63
  42.7456         84
  42.7642         86
  42.7828         80
  42.8013         61
  42.8199         66
  42.8385         88
  42.8571         80
  42.8756         83
  42.8942         68
  42.9128         63
  42.9314         69
  42.9500         77
  42.9685         68
  42.9871         82
  43.0057         70
  43.0243         71
  43.0428         65
  43.0614         79
  43.0800         85
  43.0986         80
  43.1171         71
  43.1357         72
  43.1543         69
  43.1729         90
  43.1914         87
  43.2100         57
  43.2286         87
  43.2472         81
  43.2657         91
  43.2843         84
  43.3029         69
  43.3215         67
  43.3400         69
  43.3586         88
  43.3772         76
  43.3958         98
  43.4143         70
  43.4329         81
  43.4515         69
  43.4701         77
  43.4886         75
  43.5072         71
  43.5258         88
  43.5444        113
  43.5629        146
  43.5815        119
  43.6001         76
  43.6187         80
  43.6372        104
  43.6558         85
  43.6744        102
  43.6930         85
  43.7116         78
  43.7301         94
  43.7487         94
  43.7673         60
  43.7859         81
  43.8044         77
  43.8230         76
  43.8416         71
  43.8602         67
  43.8787         66
  43.8973         59
  43.9159         72
  43.9345         83
  43.9530         81
  43.9716         83
  43.9902         77
  44.0088         58
  44.0273         68
  44.0459         62
  44.0645         67
  44.0831         73
  44.1016         72
  44.1202         80
  44.1388         79
  44.1574         77
  44.1759         69
  44.1945         66
  44.2131         67
  44.2317         84
  44.2502         77
  44.2688         72
  44.2874         76
  44.3060         76
  44.3245         78
  44.3431         67
  44.3617         81
  44.3803         76
  44.3988         80
  44.4174         70
  44.4360         71
  44.4546         70
  44.4732         79
  44.4917         79
  44.5103         74
  44.5289         79
  44.5475         68
  44.5660         66
  44.5846         79
  44.6032         63
  44.6218         68
  44.6403         84
  44.6589         78
  44.6775         95
  44.6961         81
  44.7146         75
  44.7332         85
  44.7518         80
  44.7704         66
  44.7889         76
  44.8075         69
  44.8261         68
  44.8447         67
  44.8632         69
  44.8818         64
  44.9004         71
  44.9190         82
  44.9375         82
  44.9561         85
  44.9747         63
  44.9933         76
  45.0118         69
  45.0304         52
  45.0490         62
  45.0676         80
  45.0861         61
  45.1047         64
  45.1233         76
  45.1419         67
  45.1604         74
  45.1790         61
  45.1976         74
  45.2162         83
  45.2347         83
  45.2533         68
  45.2719         65
  45.2905         66
  45.3091         71
  45.3276         69
  45.3462         69
  45.3648         62
  45.3834         79
  45.4019         71
  45.4205         68
  45.4391         65
  45.4577         69
  45.4762         67
  45.4948         69
  45.5134         71
  45.5320         66
  45.5505         71
  45.5691         52
  45.5877         63
  45.6063         64
  45.6248         73
  45.6434         65
  45.6620         71
  45.6806         59
  45.6991         66
  45.7177         63
  45.7363         75
  45.7549         66
  45.7734         72
  45.7920         63
  45.8106         66
  45.8292         67
  45.8477         70
  45.8663         62
  45.8849         71
  45.9035         61
  45.9220         69
  45.9406         81
  45.9592         83
  45.9778         61
  45.9963         65
  46.0149         54
  46.0335         54
  46.0521         85
  46.0707         58
  46.0892         83
  46.1078         70
  46.1264         73
  46.1450         54
  46.1635         67
  46.1821         76
  46.2007         72
  46.2193         68
  46.2378         60
  46.2564         75
  46.2750         72
  46.2936         92
  46.3121         50
  46.3307         73
  46.3493         83
  46.3679         70
  46.3864         51
  46.4050         72
  46.4236         66
  46.4422         69
  46.4607         64
  46.4793         71
  46.4979         65
  46.5165         67
  46.5350         61
  46.5536         73
  46.5722         66
  46.5908         83
  46.6093         81
  46.6279         84
  46.6465         65
  46.6651         68
  46.6836         79
  46.7022         63
  46.7208         68
  46.7394         72
  46.7579         60
  46.7765         72
  46.7951         68
  46.8137         65
  46.8323         84
  46.8508         63
  46.8694         70
  46.8880         59
  46.9066         55
  46.9251         66
  46.9437         79
  46.9623         72
  46.9809         74
  46.9994         56
  47.0180         55
  47.0366         61
  47.0552         68
  47.0737         59
  47.0923         73
  47.1109         66
  47.1295         62
  47.1480         54
  47.1666         63
  47.1852         79
  47.2038         70
  47.2223         76
  47.2409         68
  47.2595         74
  47.2781         70
  47.2966         58
  47.3152         60
  47.3338         63
  47.3524         67
  47.3709         70
  47.3895         75
  47.4081         82
  47.4267         75
  47.4452         73
  47.4638         55
  47.4824         66
  47.5010         69
  47.5195         63
  47.5381         58
  47.5567         67
  47.5753         59
  47.5939         64
  47.6124         65
  47.6310         58
  47.6496         73
  47.6682         55
  47.6867         68
  47.7053         68
  47.7239         63
  47.7425         73
  47.7610         83
  47.7796         78
  47.7982         60
  47.8168         56
  47.8353         66
  47.8539         65
  47.8725         73
  47.8911         61
  47.9096         59
  47.9282         57
  47.9468         53
  47.9654         69
  47.9839         59
  48.0025         75
  48.0211         70
  48.0397         70
  48.0582         75
  48.0768         83
  48.0954         62
  48.1140         67
  48.1325         71
  48.1511         58
  48.1697         78
  48.1883         61
  48.2068         53
  48.2254         59
  48.2440         76
  48.2626         70
  48.2811         71
  48.2997         58
  48.3183         66
  48.3369         67
  48.3555         60
  48.3740         76
  48.3926         73
  48.4112         58
  48.4298         60
  48.4483         59
  48.4669         54
  48.4855         54
  48.5041         58
  48.5226         47
  48.5412         73
  48.5598         68
  48.5784         77
  48.5969         63
  48.6155         65
  48.6341         56
  48.6527         56
  48.6712         60
  48.6898         60
  48.7084         66
  48.7270         66
  48.7455         60
  48.7641         90
  48.7827         64
  48.8013         64
  48.8198         57
  48.8384         64
  48.8570         82
  48.8756         58
  48.8941         65
  48.9127         68
  48.9313         68
  48.9499         71
  48.9684         92
  48.9870        124
  49.0056        100
  49.0242        102
  49.0427         83
  49.0613         74
  49.0799         87
  49.0985         78
  49.1171         92
  49.1356        106
  49.1542         85
  49.1728         86
  49.1914         80
  49.2099         75
  49.2285         76
  49.2471         73
  49.2657         71
  49.2842         63
  49.3028         58
  49.3214         51
  49.3400         67
  49.3585         85
  49.3771         76
  49.3957         56
  49.4143         57
  49.4328         66
  49.4514         59
  49.4700         71
  49.4886         61
  49.5071         55
  49.5257         54
  49.5443         64
  49.5629         68
  49.5814         56
  49.6000         47
  49.6186         58
  49.6372         63
  49.6557         61
  49.6743         53
  49.6929         61
  49.7115         79
  49.7300         72
  49.7486         66
  49.7672         59
  49.7858         54
  49.8043         57
  49.8229         56
  49.8415         50
  49.8601         66
  49.8786         64
  49.8972         56
  49.9158         59
  49.9344         67
  49.9530         68
  49.9715         61
  49.9901         62
  50.0087         64
  50.0273         82
  50.0458         63
  50.0644         56
  50.0830         58
  50.1016         67
  50.1201         72
  50.1387         50
  50.1573         69
  50.1759         72
  50.1944         57
  50.2130         90
  50.2316         56
  50.2502         80
  50.2687         64
  50.2873         63
  50.3059         58
  50.3245         81
  50.3430         54
  50.3616         68
  50.3802         51
  50.3988         70
  50.4173         56
  50.4359         53
  50.4545         61
  50.4731         56
  50.4916         68
  50.5102         60
  50.5288         73
  50.5474         62
  50.5659         56
  50.5845         69
  50.6031         57
  50.6217         59
  50.6402         53
  50.6588         54
  50.6774         66
  50.6960         54
  50.7146         75
  50.7331         51
  50.7517         51
  50.7703         73
  50.7889         59
  50.8074         48
  50.8260         59
  50.8446         50
  50.8632         56
  50.8817         56
  50.9003         52
  50.9189         69
  50.9375         61
  50.9560         58
  50.9746         54
  50.9932         56
  51.0118         51
  51.0303         57
  51.0489         65
  51.0675         57
  51.0861         53
  51.1046         69
  51.1232         64
  51.1418         56
  51.1604         49
  51.1789         59
  51.1975         68
  51.2161         62
  51.2347         64
  51.2532         79
  51.2718         76
  51.2904         67
  51.3090         68
  51.3275         56
  51.3461         70
  51.3647         57
  51.3833         84
  51.4018         61
  51.4204         71
  51.4390         88
  51.4576         75
  51.4762         51
  51.4947         62
  51.5133         65
  51.5319         66
  51.5505         57
  51.5690         53
  51.5876         60
  51.6062         54
  51.6248         75
  51.6433         56
  51.6619         55
  51.6805         54
  51.6991         57
  51.7176         74
  51.7362         64
  51.7548         79
  51.7734         78
  51.7919         70
  51.8105         70
  51.8291         74
  51.8477         70
  51.8662         61
  51.8848         65
  51.9034         70
  51.9220         64
  51.9405         74
  51.9591         67
  51.9777         78
  51.9963         61
  52.0148         64
  52.0334         59
  52.0520         50
  52.0706         55
  52.0891         46
  52.1077         64
  52.1263         57
  52.1449         55
  52.1634         57
  52.1820         56
  52.2006         69
  52.2192         60
  52.2378         63
  52.2563         59
  52.2749         54
  52.2935         68
  52.3121         76
  52.3306         56
  52.3492         61
  52.3678         57
  52.3864         60
  52.4049         69
  52.4235         58
  52.4421         64
  52.4607         56
  52.4792         60
  52.4978         42
  52.5164         58
  52.5350         55
  52.5535         50
  52.5721         70
  52.5907         56
  52.6093         40
  52.6278         49
  52.6464         50
  52.6650         51
  52.6836         61
  52.7021         42
  52.7207         56
  52.7393         69
  52.7579         55
  52.7764         57
  52.7950         51
  52.8136         61
  52.8322         65
  52.8507         69
  52.8693         52
  52.8879         64
  52.9065         52
  52.9250         63
  52.9436         57
  52.9622         55
  52.9808         54
  52.9994         75
  53.0179         71
  53.0365         68
  53.0551         51
  53.0737         60
  53.0922         73
  53.1108         62
  53.1294         59
  53.1480         67
  53.1665         56
  53.1851         59
  53.2037         53
  53.2223         57
  53.2408         59
  53.2594         48
  53.2780         59
  53.2966         53
  53.3151         66
  53.3337         67
  53.3523         63
  53.3709         67
  53.3894         60
  53.4080         42
  53.4266         53
  53.4452         53
  53.4637         69
  53.4823         61
  53.5009         73
  53.5195         63
  53.5380         62
  53.5566         57
  53.5752         59
  53.5938         47
  53.6123         63
  53.6309         68
  53.6495         52
  53.6681         63
  53.6866         71
  53.7052         73
  53.7238         54
  53.7424         56
  53.7610         63
  53.7795         61
  53.7981         47
  53.8167         50
  53.8353         66
  53.8538         74
  53.8724         57
  53.8910         58
  53.9096         62
  53.9281         57
  53.9467         71
  53.9653         75
  53.9839         68
  54.0024         78
  54.0210         88
  54.0396         70
  54.0582         70
  54.0767         60
  54.0953         73
  54.1139         62
  54.1325         50
  54.1510         54
  54.1696         67
  54.1882         78
  54.2068         53
  54.2253         39
  54.2439         65
  54.2625         57
  54.2811         63
  54.2996         51
  54.3182         67
  54.3368         43
  54.3554         59
  54.3739         52
  54.3925         60
  54.4111         60
  54.4297         52
  54.4482         59
  54.4668         61
  54.4854         61
  54.5040         61
  54.5225         53
  54.5411         48
  54.5597         54
  54.5783         49
  54.5969         41
  54.6154         55
  54.6340         60
  54.6526         59
  54.6712         47
  54.6897         58
  54.7083         67
  54.7269         63
  54.7455         69
  54.7640         64
  54.7826         58
  54.8012         64
  54.8198         74
  54.8383         67
  54.8569         68
  54.8755         67
  54.8941         63
  54.9126         51
  54.9312         67
  54.9498         48
  54.9684         59
  54.9869         61
  55.0055         57
  55.0241         55
  55.0427         65
  55.0612         70
  55.0798         58
  55.0984         61
  55.1170         56
  55.1355         43
  55.1541         59
  55.1727         63
  55.1913         51
  55.2098         60
  55.2284         45
  55.2470         60
  55.2656         55
  55.2841         65
  55.3027         71
  55.3213         53
  55.3399         49
  55.3585         61
  55.3770         60
  55.3956         56
  55.4142         63
  55.4328         57
  55.4513         49
  55.4699         61
  55.4885         56
  55.5071         57
  55.5256         62
  55.5442         47
  55.5628         59
  55.5814         44
  55.5999         57
  55.6185         71
  55.6371         56
  55.6557         59
  55.6742         54
  55.6928         69
  55.7114         46
  55.7300         47
  55.7485         55
  55.7671         47
  55.7857         53
  55.8043         61
  55.8228         44
  55.8414         55
  55.8600         53
  55.8786         43
  55.8971         57
  55.9157         63
  55.9343         56
  55.9529         52
  55.9714         62
  55.9900         61
  56.0086         57
  56.0272         56
  56.0457         50
  56.0643         46
  56.0829         67
  56.1015         61
  56.1201         60
  56.1386         61
  56.1572         54
  56.1758         53
  56.1944         49
  56.2129         77
  56.2315         60
  56.2501         81
  56.2687         67
  56.2872         67
  56.3058         49
  56.3244         56
  56.3430         63
  56.3615         55
  56.3801         54
  56.3987         46
  56.4173         49
  56.4358         68
  56.4544         67
  56.4730         55
  56.4916         64
  56.5101         61
  56.5287         60
  56.5473         60
  56.5659         55
  56.5844         56
  56.6030         67
  56.6216         53
  56.6402         49
  56.6587         49
  56.6773         70
  56.6959         54
  56.7145         41
  56.7330         48
  56.7516         48
  56.7702         61
  56.7888         50
  56.8073         47
  56.8259         59
  56.8445         54
  56.8631         48
  56.8817         70
  56.9002         61
  56.9188         57
  56.9374         59
  56.9560         58
  56.9745         61
  56.9931         47
  57.0117         50
  57.0303         70
  57.0488         51
  57.0674         36
  57.0860         46
  57.1046         65
  57.1231         68
  57.1417         45
  57.1603         49
  57.1789         71
  57.1974         53
  57.2160         55
  57.2346         40
  57.2532         54
  57.2717         55
  57.2903         61
  57.3089         65
  57.3275         49
  57.3460         65
  57.3646         57
  57.3832         48
  57.4018         51
  57.4203         51
  57.4389         48
  57.4575         55
  57.4761         42
  57.4946         53
  57.5132         71
  57.5318         49
  57.5504         67
  57.5689         64
  57.5875         58
  57.6061         69
  57.6247         64
  57.6433         44
  57.6618         52
  57.6804         52
  57.6990         54
  57.7176         58
  57.7361         53
  57.7547         53
  57.7733         49
  57.7919         79
  57.8104         63
  57.8290         64
  57.8476         60
  57.8662         61
  57.8847         61
  57.9033         71
  57.9219         47
  57.9405         68
  57.9590         68
  57.9776         64
  57.9962         52
  58.0148         71
  58.0333         48
  58.0519         71
  58.0705         46
  58.0891         54
  58.1076         49
  58.1262         58
  58.1448         54
  58.1634         56
  58.1819         59
  58.2005         44
  58.2191         59
  58.2377         59
  58.2562         63
  58.2748         48
  58.2934         53
  58.3120         48
  58.3305         39
  58.3491         53
  58.3677         50
  58.3863         56
  58.4049         43
  58.4234         58
  58.4420         50
  58.4606         57
  58.4792         57
  58.4977         49
  58.5163         59
  58.5349         50
  58.5535         60
  58.5720         62
  58.5906         52
  58.6092         57
  58.6278         65
  58.6463         59
  58.6649         58
  58.6835         57
  58.7021         65
  58.7206         65
  58.7392         76
  58.7578         53
  58.7764         55
  58.7949         61
  58.8135         62
  58.8321         49
  58.8507         52
  58.8692         56
  58.8878         42
  58.9064         56
  58.9250         66
  58.9435         54
  58.9621         47
  58.9807         55
  58.9993         39
  59.0178         61
  59.0364         52
  59.0550         60
  59.0736         44
  59.0921         69
  59.1107         71
  59.1293         64
  59.1479         59
  59.1664         53
  59.1850         57
  59.2036         62
  59.2222         50
  59.2408         53
  59.2593         43
  59.2779         50
  59.2965         45
  59.3151         56
  59.3336         45
  59.3522         58
  59.3708         56
  59.3894         51
  59.4079         60
  59.4265         50
  59.4451         49
  59.4637         56
  59.4822         53
  59.5008         47
  59.5194         60
  59.5380         59
  59.5565         65
  59.5751         68
  59.5937         71
  59.6123         61
  59.6308         53
  59.6494         58
  59.6680         52
  59.6866         61
  59.7051         47
  59.7237         64
  59.7423         56
  59.7609         54
  59.7794         62
  59.7980         51
  59.8166         52
  59.8352         66
  59.8537         45
  59.8723         47
  59.8909         66
  59.9095         69
  59.9280         53
  59.9466         55
  59.9652         62
  59.9838         56
  60.0024         58
