; (content of file Y:\Sam\Apurva-07-20-2022\puck1\ML_20220721_10_SJD_0_LaB6-4min.raw)
_FILEVERSION = 3
_SAMPLE = ML_20220721_10_SJD_0_LaB6-4min
_+SAMPLE = 
_SITE = USA
_USER = Administrator
_GONIOMETER_CODE = 20
; Goniometer : D8 theta/2theta, stage : Unknown
_ATTACHMENTS_CODE = 0
_GONIOMETER_RADIUS = 200.5
_FIXED_DIVSLIT = 0.6
_FIXED_SAMPLESLIT = 0
_SOLLER_SLITS = 2
_FIXED_DETSLIT = 9.55
_MONOCHROMATOR = 0
; Incident beam monochromator : None
_SOLLER_SLITS_2 = N
_THIN_FILM = N
_BETA_FILTER = Y
_FIXED_ANTISLIT = 5.89
_ANALYZER_CODE = 0
; Received beam analyzer : None
_DATEMEASURED = "25-Jul-2022 14:37:26"
_WL_UNIT = A
_WL1 = 1.5406
_WL2 = 1.54439
_WL3 = 1.39222
_WLRATIO = 0.5
_ANODE = Cu
_V4_INF_CREATOR = XRDWizard
_V4_INF_CREATOR_VERSION = V2.9.0.22
_V4_INF_WIZARD_VERSION = V2.9.0.22
_V4_INF_WIZARD_ADDINS = V2.9.0.22
_V4_INF_WIZARD_DOCTYPE = XRD
_V4_INF_OSUSER = McQueenLab
_V4_INF_USER = Administrator
_V4_INF_SITE = USA
_V4_INF_SAMPLEID = ML_20220721_10_SJD_0_LaB6-4min

; Data for range 1
_DRIVE = COUPLED
_STEPTIME = 11.28
_STEPSIZE = 0.0185756
_STEPMODE = C
_START = 5
_THETA = 2.5
_2THETA = 5
_KHI = 0
_PHI = 0
_X = 0
_Y = 0
_Z = 0
_DETECTOR = 5
; Detector type : Unknown
_DETECTORSLIT = unkn
_AUX1 = 0
_AUX2 = 0
_AUX3 = 0
_TIMESTARTED = 15
_TEMP_RATE = -1
_TEMP_DELAY = -1
_KV = 40
_MA = 40
_RANGE_WL = 1.5406
_3DPLANE = 0
_V4_ADDITIONALDETECTOR = 257
_V4_PSD2THETA = 3.372
_V4_PSDCHANNEL1 = 0
_V4_PSDAPERTURE = 12.68
_V4_PSDTYPE = 5
_V4_PSDFIXED = 0
_V4_COUNTERS_MASK = 4096
_V4_DRIVES_MASK = 0
_V4_ENCODERS_MASK = 0
_2THETACOUNTS = 1
; 2THETA  PSD
   5.0000        259
   5.0186        248
   5.0372        230
   5.0557        261
   5.0743        251
   5.0929        215
   5.1115        247
   5.1300        218
   5.1486        247
   5.1672        225
   5.1858        221
   5.2043        243
   5.2229        218
   5.2415        206
   5.2601        245
   5.2786        224
   5.2972        241
   5.3158        230
   5.3344        217
   5.3529        231
   5.3715        220
   5.3901        225
   5.4087        224
   5.4272        222
   5.4458        233
   5.4644        209
   5.4830        219
   5.5015        194
   5.5201        216
   5.5387        232
   5.5573        196
   5.5758        213
   5.5944        212
   5.6130        206
   5.6316        206
   5.6501        235
   5.6687        200
   5.6873        207
   5.7059        200
   5.7244        198
   5.7430        173
   5.7616        196
   5.7802        200
   5.7988        195
   5.8173        216
   5.8359        199
   5.8545        185
   5.8731        188
   5.8916        175
   5.9102        196
   5.9288        198
   5.9474        180
   5.9659        185
   5.9845        196
   6.0031        186
   6.0217        172
   6.0402        161
   6.0588        182
   6.0774        185
   6.0960        181
   6.1145        196
   6.1331        192
   6.1517        174
   6.1703        180
   6.1888        161
   6.2074        171
   6.2260        207
   6.2446        193
   6.2631        177
   6.2817        180
   6.3003        182
   6.3189        158
   6.3374        179
   6.3560        190
   6.3746        171
   6.3932        161
   6.4117        162
   6.4303        191
   6.4489        171
   6.4675        153
   6.4860        187
   6.5046        175
   6.5232        196
   6.5418        186
   6.5604        183
   6.5789        180
   6.5975        166
   6.6161        160
   6.6347        166
   6.6532        200
   6.6718        173
   6.6904        167
   6.7090        158
   6.7275        166
   6.7461        141
   6.7647        146
   6.7833        175
   6.8018        149
   6.8204        168
   6.8390        162
   6.8576        164
   6.8761        155
   6.8947        168
   6.9133        169
   6.9319        153
   6.9504        181
   6.9690        151
   6.9876        182
   7.0062        156
   7.0247        135
   7.0433        134
   7.0619        155
   7.0805        137
   7.0990        158
   7.1176        159
   7.1362        179
   7.1548        156
   7.1733        155
   7.1919        144
   7.2105        155
   7.2291        152
   7.2476        174
   7.2662        170
   7.2848        158
   7.3034        139
   7.3220        165
   7.3405        179
   7.3591        156
   7.3777        171
   7.3963        157
   7.4148        152
   7.4334        159
   7.4520        183
   7.4706        155
   7.4891        185
   7.5077        153
   7.5263        158
   7.5449        152
   7.5634        162
   7.5820        158
   7.6006        172
   7.6192        177
   7.6377        166
   7.6563        172
   7.6749        186
   7.6935        171
   7.7120        211
   7.7306        183
   7.7492        167
   7.7678        185
   7.7863        183
   7.8049        194
   7.8235        171
   7.8421        147
   7.8606        157
   7.8792        183
   7.8978        164
   7.9164        207
   7.9349        192
   7.9535        187
   7.9721        194
   7.9907        184
   8.0092        180
   8.0278        217
   8.0464        202
   8.0650        176
   8.0835        185
   8.1021        204
   8.1207        174
   8.1393        181
   8.1579        171
   8.1764        175
   8.1950        163
   8.2136        200
   8.2322        194
   8.2507        206
   8.2693        206
   8.2879        183
   8.3065        192
   8.3250        187
   8.3436        175
   8.3622        193
   8.3808        215
   8.3993        223
   8.4179        198
   8.4365        179
   8.4551        161
   8.4736        186
   8.4922        225
   8.5108        214
   8.5294        179
   8.5479        182
   8.5665        176
   8.5851        214
   8.6037        198
   8.6222        188
   8.6408        214
   8.6594        212
   8.6780        218
   8.6965        197
   8.7151        189
   8.7337        219
   8.7523        213
   8.7708        213
   8.7894        198
   8.8080        227
   8.8266        212
   8.8451        209
   8.8637        206
   8.8823        220
   8.9009        217
   8.9195        241
   8.9380        233
   8.9566        213
   8.9752        197
   8.9938        202
   9.0123        232
   9.0309        213
   9.0495        200
   9.0681        201
   9.0866        221
   9.1052        193
   9.1238        218
   9.1424        209
   9.1609        228
   9.1795        214
   9.1981        211
   9.2167        226
   9.2352        238
   9.2538        257
   9.2724        226
   9.2910        225
   9.3095        178
   9.3281        221
   9.3467        224
   9.3653        229
   9.3838        219
   9.4024        226
   9.4210        214
   9.4396        227
   9.4581        234
   9.4767        260
   9.4953        226
   9.5139        228
   9.5324        213
   9.5510        230
   9.5696        229
   9.5882        221
   9.6067        245
   9.6253        217
   9.6439        221
   9.6625        228
   9.6811        237
   9.6996        224
   9.7182        225
   9.7368        215
   9.7554        234
   9.7739        233
   9.7925        225
   9.8111        234
   9.8297        255
   9.8482        235
   9.8668        231
   9.8854        251
   9.9040        262
   9.9225        238
   9.9411        257
   9.9597        235
   9.9783        232
   9.9968        250
  10.0154        240
  10.0340        262
  10.0526        224
  10.0711        248
  10.0897        266
  10.1083        231
  10.1269        241
  10.1454        279
  10.1640        227
  10.1826        258
  10.2012        267
  10.2197        252
  10.2383        239
  10.2569        219
  10.2755        262
  10.2940        234
  10.3126        254
  10.3312        259
  10.3498        231
  10.3683        230
  10.3869        268
  10.4055        241
  10.4241        239
  10.4427        218
  10.4612        248
  10.4798        252
  10.4984        266
  10.5170        236
  10.5355        206
  10.5541        264
  10.5727        250
  10.5913        282
  10.6098        264
  10.6284        251
  10.6470        231
  10.6656        251
  10.6841        240
  10.7027        260
  10.7213        214
  10.7399        251
  10.7584        218
  10.7770        256
  10.7956        248
  10.8142        239
  10.8327        274
  10.8513        224
  10.8699        244
  10.8885        242
  10.9070        238
  10.9256        215
  10.9442        224
  10.9628        262
  10.9813        268
  10.9999        254
  11.0185        243
  11.0371        224
  11.0556        229
  11.0742        257
  11.0928        208
  11.1114        237
  11.1299        222
  11.1485        249
  11.1671        254
  11.1857        220
  11.2043        243
  11.2228        240
  11.2414        263
  11.2600        210
  11.2786        243
  11.2971        267
  11.3157        251
  11.3343        266
  11.3529        219
  11.3714        230
  11.3900        267
  11.4086        249
  11.4272        224
  11.4457        256
  11.4643        247
  11.4829        246
  11.5015        241
  11.5200        242
  11.5386        245
  11.5572        228
  11.5758        261
  11.5943        259
  11.6129        267
  11.6315        231
  11.6501        226
  11.6686        261
  11.6872        246
  11.7058        233
  11.7244        226
  11.7429        246
  11.7615        271
  11.7801        238
  11.7987        216
  11.8172        240
  11.8358        209
  11.8544        251
  11.8730        245
  11.8915        225
  11.9101        231
  11.9287        248
  11.9473        235
  11.9659        225
  11.9844        242
  12.0030        224
  12.0216        213
  12.0402        248
  12.0587        260
  12.0773        213
  12.0959        273
  12.1145        238
  12.1330        225
  12.1516        224
  12.1702        223
  12.1888        242
  12.2073        214
  12.2259        221
  12.2445        221
  12.2631        237
  12.2816        234
  12.3002        204
  12.3188        234
  12.3374        250
  12.3559        206
  12.3745        231
  12.3931        253
  12.4117        209
  12.4302        239
  12.4488        239
  12.4674        222
  12.4860        215
  12.5045        222
  12.5231        198
  12.5417        228
  12.5603        231
  12.5788        216
  12.5974        223
  12.6160        243
  12.6346        220
  12.6531        227
  12.6717        223
  12.6903        208
  12.7089        195
  12.7274        215
  12.7460        217
  12.7646        188
  12.7832        222
  12.8018        206
  12.8203        211
  12.8389        215
  12.8575        226
  12.8761        190
  12.8946        219
  12.9132        228
  12.9318        208
  12.9504        203
  12.9689        219
  12.9875        205
  13.0061        209
  13.0247        211
  13.0432        211
  13.0618        201
  13.0804        227
  13.0990        211
  13.1175        209
  13.1361        204
  13.1547        201
  13.1733        205
  13.1918        208
  13.2104        226
  13.2290        202
  13.2476        208
  13.2661        190
  13.2847        227
  13.3033        202
  13.3219        198
  13.3404        192
  13.3590        224
  13.3776        211
  13.3962        197
  13.4147        214
  13.4333        201
  13.4519        204
  13.4705        190
  13.4890        204
  13.5076        205
  13.5262        194
  13.5448        204
  13.5634        210
  13.5819        210
  13.6005        186
  13.6191        197
  13.6377        204
  13.6562        182
  13.6748        188
  13.6934        199
  13.7120        205
  13.7305        197
  13.7491        201
  13.7677        188
  13.7863        204
  13.8048        180
  13.8234        191
  13.8420        219
  13.8606        191
  13.8791        203
  13.8977        204
  13.9163        185
  13.9349        203
  13.9534        184
  13.9720        172
  13.9906        208
  14.0092        202
  14.0277        195
  14.0463        189
  14.0649        200
  14.0835        199
  14.1020        182
  14.1206        164
  14.1392        197
  14.1578        161
  14.1763        169
  14.1949        185
  14.2135        189
  14.2321        175
  14.2506        200
  14.2692        141
  14.2878        177
  14.3064        184
  14.3250        187
  14.3435        171
  14.3621        201
  14.3807        175
  14.3993        146
  14.4178        197
  14.4364        188
  14.4550        165
  14.4736        181
  14.4921        159
  14.5107        177
  14.5293        178
  14.5479        175
  14.5664        178
  14.5850        181
  14.6036        177
  14.6222        197
  14.6407        154
  14.6593        164
  14.6779        187
  14.6965        180
  14.7150        153
  14.7336        160
  14.7522        158
  14.7708        159
  14.7893        172
  14.8079        165
  14.8265        156
  14.8451        155
  14.8636        181
  14.8822        149
  14.9008        172
  14.9194        180
  14.9379        170
  14.9565        172
  14.9751        179
  14.9937        155
  15.0122        134
  15.0308        151
  15.0494        189
  15.0680        173
  15.0866        165
  15.1051        170
  15.1237        157
  15.1423        161
  15.1609        140
  15.1794        153
  15.1980        157
  15.2166        175
  15.2352        160
  15.2537        174
  15.2723        152
  15.2909        144
  15.3095        182
  15.3280        163
  15.3466        165
  15.3652        197
  15.3838        157
  15.4023        179
  15.4209        184
  15.4395        164
  15.4581        155
  15.4766        165
  15.4952        175
  15.5138        163
  15.5324        168
  15.5509        189
  15.5695        160
  15.5881        178
  15.6067        163
  15.6252        186
  15.6438        151
  15.6624        191
  15.6810        151
  15.6995        172
  15.7181        141
  15.7367        172
  15.7553        174
  15.7738        155
  15.7924        145
  15.8110        173
  15.8296        184
  15.8482        191
  15.8667        153
  15.8853        173
  15.9039        174
  15.9225        144
  15.9410        180
  15.9596        174
  15.9782        172
  15.9968        159
  16.0153        174
  16.0339        151
  16.0525        187
  16.0711        161
  16.0896        143
  16.1082        202
  16.1268        156
  16.1454        168
  16.1639        153
  16.1825        158
  16.2011        152
  16.2197        161
  16.2382        163
  16.2568        171
  16.2754        147
  16.2940        164
  16.3125        144
  16.3311        197
  16.3497        150
  16.3683        161
  16.3868        164
  16.4054        155
  16.4240        177
  16.4426        151
  16.4611        147
  16.4797        165
  16.4983        151
  16.5169        168
  16.5354        158
  16.5540        155
  16.5726        159
  16.5912        146
  16.6097        175
  16.6283        152
  16.6469        146
  16.6655        173
  16.6841        142
  16.7026        149
  16.7212        156
  16.7398        152
  16.7584        171
  16.7769        170
  16.7955        160
  16.8141        147
  16.8327        146
  16.8512        174
  16.8698        163
  16.8884        186
  16.9070        172
  16.9255        160
  16.9441        164
  16.9627        165
  16.9813        135
  16.9998        158
  17.0184        172
  17.0370        156
  17.0556        143
  17.0741        162
  17.0927        158
  17.1113        160
  17.1299        156
  17.1484        160
  17.1670        174
  17.1856        143
  17.2042        135
  17.2227        175
  17.2413        155
  17.2599        162
  17.2785        139
  17.2970        179
  17.3156        161
  17.3342        171
  17.3528        140
  17.3713        147
  17.3899        154
  17.4085        160
  17.4271        139
  17.4457        172
  17.4642        145
  17.4828        158
  17.5014        147
  17.5200        164
  17.5385        146
  17.5571        175
  17.5757        146
  17.5943        164
  17.6128        179
  17.6314        157
  17.6500        151
  17.6686        159
  17.6871        157
  17.7057        165
  17.7243        175
  17.7429        169
  17.7614        178
  17.7800        179
  17.7986        166
  17.8172        153
  17.8357        163
  17.8543        164
  17.8729        170
  17.8915        170
  17.9100        184
  17.9286        141
  17.9472        183
  17.9658        168
  17.9843        160
  18.0029        144
  18.0215        157
  18.0401        179
  18.0586        176
  18.0772        162
  18.0958        170
  18.1144        146
  18.1329        151
  18.1515        148
  18.1701        160
  18.1887        170
  18.2073        183
  18.2258        174
  18.2444        166
  18.2630        166
  18.2816        154
  18.3001        156
  18.3187        179
  18.3373        182
  18.3559        147
  18.3744        173
  18.3930        173
  18.4116        165
  18.4302        163
  18.4487        177
  18.4673        158
  18.4859        168
  18.5045        168
  18.5230        171
  18.5416        143
  18.5602        170
  18.5788        145
  18.5973        177
  18.6159        160
  18.6345        170
  18.6531        165
  18.6716        164
  18.6902        158
  18.7088        158
  18.7274        155
  18.7459        142
  18.7645        157
  18.7831        152
  18.8017        160
  18.8202        178
  18.8388        157
  18.8574        183
  18.8760        188
  18.8945        184
  18.9131        164
  18.9317        183
  18.9503        173
  18.9689        181
  18.9874        183
  19.0060        151
  19.0246        193
  19.0432        172
  19.0617        167
  19.0803        181
  19.0989        145
  19.1175        179
  19.1360        157
  19.1546        170
  19.1732        164
  19.1918        188
  19.2103        187
  19.2289        170
  19.2475        162
  19.2661        181
  19.2846        164
  19.3032        156
  19.3218        192
  19.3404        175
  19.3589        157
  19.3775        175
  19.3961        193
  19.4147        187
  19.4332        162
  19.4518        157
  19.4704        194
  19.4890        196
  19.5075        187
  19.5261        169
  19.5447        149
  19.5633        169
  19.5818        176
  19.6004        177
  19.6190        185
  19.6376        177
  19.6561        161
  19.6747        165
  19.6933        153
  19.7119        163
  19.7305        164
  19.7490        173
  19.7676        174
  19.7862        170
  19.8048        197
  19.8233        177
  19.8419        183
  19.8605        186
  19.8791        183
  19.8976        201
  19.9162        185
  19.9348        182
  19.9534        198
  19.9719        196
  19.9905        187
  20.0091        167
  20.0277        179
  20.0462        153
  20.0648        173
  20.0834        174
  20.1020        178
  20.1205        185
  20.1391        182
  20.1577        194
  20.1763        174
  20.1948        182
  20.2134        199
  20.2320        180
  20.2506        186
  20.2691        179
  20.2877        189
  20.3063        206
  20.3249        170
  20.3434        199
  20.3620        164
  20.3806        190
  20.3992        171
  20.4177        187
  20.4363        187
  20.4549        198
  20.4735        194
  20.4921        181
  20.5106        188
  20.5292        157
  20.5478        167
  20.5664        197
  20.5849        185
  20.6035        214
  20.6221        196
  20.6407        177
  20.6592        204
  20.6778        167
  20.6964        195
  20.7150        179
  20.7335        211
  20.7521        188
  20.7707        191
  20.7893        205
  20.8078        187
  20.8264        190
  20.8450        164
  20.8636        179
  20.8821        214
  20.9007        165
  20.9193        162
  20.9379        194
  20.9564        192
  20.9750        176
  20.9936        195
  21.0122        215
  21.0307        193
  21.0493        203
  21.0679        187
  21.0865        184
  21.1050        213
  21.1236        192
  21.1422        199
  21.1608        198
  21.1793        229
  21.1979        187
  21.2165        279
  21.2351        254
  21.2537        308
  21.2722        356
  21.2908        292
  21.3094        316
  21.3280        316
  21.3465        303
  21.3651        355
  21.3837        445
  21.4023        518
  21.4208        461
  21.4394        416
  21.4580        363
  21.4766        327
  21.4951        260
  21.5137        218
  21.5323        197
  21.5509        198
  21.5694        236
  21.5880        208
  21.6066        186
  21.6252        197
  21.6437        251
  21.6623        199
  21.6809        211
  21.6995        196
  21.7180        197
  21.7366        179
  21.7552        187
  21.7738        213
  21.7923        187
  21.8109        202
  21.8295        202
  21.8481        202
  21.8666        186
  21.8852        203
  21.9038        220
  21.9224        206
  21.9409        184
  21.9595        216
  21.9781        188
  21.9967        172
  22.0152        177
  22.0338        183
  22.0524        190
  22.0710        197
  22.0896        208
  22.1081        188
  22.1267        189
  22.1453        204
  22.1639        198
  22.1824        185
  22.2010        196
  22.2196        218
  22.2382        204
  22.2567        196
  22.2753        205
  22.2939        213
  22.3125        190
  22.3310        182
  22.3496        180
  22.3682        186
  22.3868        169
  22.4053        190
  22.4239        195
  22.4425        193
  22.4611        197
  22.4796        199
  22.4982        214
  22.5168        206
  22.5354        198
  22.5539        169
  22.5725        221
  22.5911        187
  22.6097        217
  22.6282        212
  22.6468        210
  22.6654        187
  22.6840        185
  22.7025        193
  22.7211        196
  22.7397        201
  22.7583        216
  22.7768        219
  22.7954        220
  22.8140        192
  22.8326        202
  22.8512        210
  22.8697        179
  22.8883        189
  22.9069        201
  22.9255        190
  22.9440        184
  22.9626        189
  22.9812        191
  22.9998        199
  23.0183        200
  23.0369        184
  23.0555        193
  23.0741        186
  23.0926        190
  23.1112        225
  23.1298        194
  23.1484        210
  23.1669        198
  23.1855        177
  23.2041        188
  23.2227        205
  23.2412        200
  23.2598        216
  23.2784        199
  23.2970        198
  23.3155        191
  23.3341        193
  23.3527        192
  23.3713        195
  23.3898        217
  23.4084        186
  23.4270        193
  23.4456        192
  23.4641        213
  23.4827        190
  23.5013        209
  23.5199        223
  23.5384        200
  23.5570        190
  23.5756        208
  23.5942        195
  23.6128        198
  23.6313        220
  23.6499        210
  23.6685        207
  23.6871        192
  23.7056        201
  23.7242        172
  23.7428        197
  23.7614        219
  23.7799        202
  23.7985        225
  23.8171        197
  23.8357        192
  23.8542        201
  23.8728        204
  23.8914        197
  23.9100        190
  23.9285        199
  23.9471        218
  23.9657        212
  23.9843        183
  24.0028        215
  24.0214        202
  24.0400        224
  24.0586        216
  24.0771        202
  24.0957        213
  24.1143        193
  24.1329        203
  24.1514        238
  24.1700        195
  24.1886        162
  24.2072        183
  24.2257        191
  24.2443        210
  24.2629        208
  24.2815        200
  24.3000        217
  24.3186        259
  24.3372        230
  24.3558        203
  24.3744        213
  24.3929        224
  24.4115        206
  24.4301        202
  24.4487        209
  24.4672        231
  24.4858        180
  24.5044        200
  24.5230        199
  24.5415        200
  24.5601        222
  24.5787        224
  24.5973        198
  24.6158        211
  24.6344        201
  24.6530        222
  24.6716        206
  24.6901        221
  24.7087        220
  24.7273        210
  24.7459        230
  24.7644        229
  24.7830        209
  24.8016        216
  24.8202        207
  24.8387        202
  24.8573        197
  24.8759        195
  24.8945        234
  24.9130        182
  24.9316        194
  24.9502        224
  24.9688        193
  24.9873        188
  25.0059        187
  25.0245        177
  25.0431        196
  25.0616        197
  25.0802        207
  25.0988        213
  25.1174        220
  25.1360        192
  25.1545        205
  25.1731        208
  25.1917        177
  25.2103        171
  25.2288        205
  25.2474        187
  25.2660        207
  25.2846        207
  25.3031        196
  25.3217        178
  25.3403        175
  25.3589        206
  25.3774        193
  25.3960        216
  25.4146        189
  25.4332        207
  25.4517        216
  25.4703        183
  25.4889        183
  25.5075        179
  25.5260        206
  25.5446        211
  25.5632        188
  25.5818        196
  25.6003        231
  25.6189        186
  25.6375        208
  25.6561        170
  25.6746        208
  25.6932        182
  25.7118        157
  25.7304        167
  25.7489        198
  25.7675        177
  25.7861        176
  25.8047        183
  25.8232        229
  25.8418        196
  25.8604        207
  25.8790        238
  25.8976        208
  25.9161        204
  25.9347        186
  25.9533        190
  25.9719        183
  25.9904        177
  26.0090        199
  26.0276        189
  26.0462        187
  26.0647        171
  26.0833        217
  26.1019        163
  26.1205        196
  26.1390        187
  26.1576        203
  26.1762        176
  26.1948        205
  26.2133        192
  26.2319        206
  26.2505        179
  26.2691        199
  26.2876        181
  26.3062        183
  26.3248        179
  26.3434        171
  26.3619        187
  26.3805        195
  26.3991        170
  26.4177        169
  26.4362        168
  26.4548        169
  26.4734        199
  26.4920        184
  26.5105        172
  26.5291        207
  26.5477        189
  26.5663        197
  26.5848        190
  26.6034        175
  26.6220        179
  26.6406        189
  26.6591        174
  26.6777        188
  26.6963        197
  26.7149        198
  26.7335        172
  26.7520        191
  26.7706        189
  26.7892        187
  26.8078        177
  26.8263        183
  26.8449        199
  26.8635        212
  26.8821        204
  26.9006        193
  26.9192        177
  26.9378        179
  26.9564        174
  26.9749        170
  26.9935        171
  27.0121        182
  27.0307        202
  27.0492        182
  27.0678        185
  27.0864        198
  27.1050        206
  27.1235        188
  27.1421        201
  27.1607        202
  27.1793        199
  27.1978        200
  27.2164        256
  27.2350        252
  27.2536        235
  27.2721        209
  27.2907        228
  27.3093        213
  27.3279        238
  27.3464        209
  27.3650        203
  27.3836        189
  27.4022        195
  27.4207        187
  27.4393        185
  27.4579        163
  27.4765        214
  27.4951        170
  27.5136        186
  27.5322        208
  27.5508        185
  27.5694        199
  27.5879        198
  27.6065        160
  27.6251        185
  27.6437        195
  27.6622        190
  27.6808        179
  27.6994        179
  27.7180        183
  27.7365        179
  27.7551        171
  27.7737        216
  27.7923        174
  27.8108        173
  27.8294        192
  27.8480        182
  27.8666        176
  27.8851        177
  27.9037        186
  27.9223        146
  27.9409        163
  27.9594        161
  27.9780        168
  27.9966        179
  28.0152        162
  28.0337        187
  28.0523        188
  28.0709        183
  28.0895        178
  28.1080        187
  28.1266        165
  28.1452        182
  28.1638        168
  28.1823        180
  28.2009        181
  28.2195        165
  28.2381        170
  28.2567        165
  28.2752        182
  28.2938        179
  28.3124        160
  28.3310        167
  28.3495        191
  28.3681        158
  28.3867        165
  28.4053        160
  28.4238        168
  28.4424        150
  28.4610        181
  28.4796        178
  28.4981        161
  28.5167        173
  28.5353        160
  28.5539        180
  28.5724        179
  28.5910        157
  28.6096        165
  28.6282        200
  28.6467        181
  28.6653        140
  28.6839        141
  28.7025        188
  28.7210        168
  28.7396        159
  28.7582        144
  28.7768        180
  28.7953        146
  28.8139        162
  28.8325        155
  28.8511        179
  28.8696        153
  28.8882        176
  28.9068        183
  28.9254        168
  28.9439        159
  28.9625        159
  28.9811        169
  28.9997        190
  29.0183        178
  29.0368        160
  29.0554        158
  29.0740        160
  29.0926        172
  29.1111        165
  29.1297        167
  29.1483        166
  29.1669        164
  29.1854        159
  29.2040        145
  29.2226        168
  29.2412        144
  29.2597        169
  29.2783        173
  29.2969        143
  29.3155        165
  29.3340        147
  29.3526        144
  29.3712        152
  29.3898        141
  29.4083        162
  29.4269        159
  29.4455        174
  29.4641        172
  29.4826        141
  29.5012        172
  29.5198        144
  29.5384        169
  29.5569        142
  29.5755        144
  29.5941        162
  29.6127        143
  29.6312        146
  29.6498        171
  29.6684        147
  29.6870        151
  29.7055        167
  29.7241        168
  29.7427        163
  29.7613        163
  29.7799        148
  29.7984        179
  29.8170        180
  29.8356        158
  29.8542        155
  29.8727        147
  29.8913        171
  29.9099        164
  29.9285        159
  29.9470        163
  29.9656        167
  29.9842        166
  30.0028        160
  30.0213        139
  30.0399        142
  30.0585        157
  30.0771        147
  30.0956        172
  30.1142        162
  30.1328        134
  30.1514        162
  30.1699        171
  30.1885        184
  30.2071        159
  30.2257        156
  30.2442        162
  30.2628        163
  30.2814        171
  30.3000        173
  30.3185        171
  30.3371        169
  30.3557        166
  30.3743        206
  30.3928        238
  30.4114        272
  30.4300        311
  30.4486        305
  30.4671        232
  30.4857        254
  30.5043        279
  30.5229        221
  30.5415        216
  30.5600        155
  30.5786        158
  30.5972        194
  30.6158        142
  30.6343        180
  30.6529        162
  30.6715        143
  30.6901        135
  30.7086        155
  30.7272        169
  30.7458        159
  30.7644        161
  30.7829        139
  30.8015        146
  30.8201        162
  30.8387        147
  30.8572        139
  30.8758        156
  30.8944        175
  30.9130        152
  30.9315        132
  30.9501        148
  30.9687        144
  30.9873        166
  31.0058        144
  31.0244        142
  31.0430        154
  31.0616        145
  31.0801        149
  31.0987        150
  31.1173        155
  31.1359        159
  31.1544        142
  31.1730        134
  31.1916        169
  31.2102        127
  31.2287        149
  31.2473        119
  31.2659        124
  31.2845        147
  31.3030        132
  31.3216        141
  31.3402        158
  31.3588        149
  31.3774        129
  31.3959        149
  31.4145        145
  31.4331        137
  31.4517        165
  31.4702        137
  31.4888        135
  31.5074        145
  31.5260        137
  31.5445        138
  31.5631        142
  31.5817        118
  31.6003        130
  31.6188        160
  31.6374        116
  31.6560        134
  31.6746        147
  31.6931        129
  31.7117        133
  31.7303        147
  31.7489        128
  31.7674        129
  31.7860        113
  31.8046        135
  31.8232        139
  31.8417        120
  31.8603        131
  31.8789        142
  31.8975        152
  31.9160        137
  31.9346        125
  31.9532        122
  31.9718        130
  31.9903        136
  32.0089        157
  32.0275        113
  32.0461        131
  32.0646        132
  32.0832        127
  32.1018        141
  32.1204        144
  32.1390        137
  32.1575        152
  32.1761        143
  32.1947        142
  32.2133        112
  32.2318        143
  32.2504        113
  32.2690        117
  32.2876        129
  32.3061        143
  32.3247        132
  32.3433        132
  32.3619        144
  32.3804        144
  32.3990        150
  32.4176        146
  32.4362        149
  32.4547        137
  32.4733        122
  32.4919        148
  32.5105        144
  32.5290        156
  32.5476        154
  32.5662        127
  32.5848        140
  32.6033        134
  32.6219        144
  32.6405        136
  32.6591        128
  32.6776        146
  32.6962        139
  32.7148        117
  32.7334        133
  32.7519        129
  32.7705        123
  32.7891        118
  32.8077        111
  32.8262        130
  32.8448        116
  32.8634        128
  32.8820        110
  32.9006        118
  32.9191        126
  32.9377        136
  32.9563        118
  32.9749        140
  32.9934        115
  33.0120        138
  33.0306        149
  33.0492        129
  33.0677        141
  33.0863        123
  33.1049        109
  33.1235        127
  33.1420        123
  33.1606        116
  33.1792        128
  33.1978        115
  33.2163        125
  33.2349        134
  33.2535        124
  33.2721        129
  33.2906        115
  33.3092        132
  33.3278        127
  33.3464        121
  33.3649        116
  33.3835        112
  33.4021        124
  33.4207        119
  33.4392        118
  33.4578        103
  33.4764        112
  33.4950        117
  33.5135        109
  33.5321        115
  33.5507        104
  33.5693        136
  33.5878        124
  33.6064        113
  33.6250        122
  33.6436        124
  33.6622        122
  33.6807        109
  33.6993        129
  33.7179        129
  33.7365        110
  33.7550        117
  33.7736        130
  33.7922         98
  33.8108        116
  33.8293        121
  33.8479        132
  33.8665        120
  33.8851        120
  33.9036         97
  33.9222        110
  33.9408        106
  33.9594        114
  33.9779        129
  33.9965        123
  34.0151        108
  34.0337        122
  34.0522        100
  34.0708         93
  34.0894        102
  34.1080        120
  34.1265        121
  34.1451         99
  34.1637        120
  34.1823        126
  34.2008        116
  34.2194        112
  34.2380        108
  34.2566        106
  34.2751        109
  34.2937        118
  34.3123        105
  34.3309        132
  34.3494        114
  34.3680        115
  34.3866        111
  34.4052        113
  34.4238        124
  34.4423        112
  34.4609        102
  34.4795        101
  34.4981        119
  34.5166        119
  34.5352        107
  34.5538        113
  34.5724        124
  34.5909        107
  34.6095        122
  34.6281        134
  34.6467        122
  34.6652        134
  34.6838        123
  34.7024        152
  34.7210        125
  34.7395        110
  34.7581        162
  34.7767        130
  34.7953        152
  34.8138        170
  34.8324        164
  34.8510        144
  34.8696        153
  34.8881        143
  34.9067        138
  34.9253        153
  34.9439        118
  34.9624        116
  34.9810        107
  34.9996        124
  35.0182        112
  35.0367        126
  35.0553         93
  35.0739        108
  35.0925        104
  35.1110        107
  35.1296         91
  35.1482        108
  35.1668        122
  35.1854        103
  35.2039        122
  35.2225        108
  35.2411        114
  35.2597         95
  35.2782        102
  35.2968        127
  35.3154        106
  35.3340        109
  35.3525        103
  35.3711        109
  35.3897        122
  35.4083         79
  35.4268        114
  35.4454        110
  35.4640        114
  35.4826        103
  35.5011        101
  35.5197         85
  35.5383        100
  35.5569         97
  35.5754        100
  35.5940        100
  35.6126        112
  35.6312        121
  35.6497        106
  35.6683        110
  35.6869         98
  35.7055        108
  35.7240        104
  35.7426         95
  35.7612        110
  35.7798        101
  35.7983         96
  35.8169        112
  35.8355         92
  35.8541         93
  35.8726         84
  35.8912        110
  35.9098         84
  35.9284         91
  35.9469         78
  35.9655         95
  35.9841         98
  36.0027         82
  36.0213         88
  36.0398         89
  36.0584         94
  36.0770        104
  36.0956        115
  36.1141         94
  36.1327        110
  36.1513         81
  36.1699         91
  36.1884         90
  36.2070        101
  36.2256        102
  36.2442         98
  36.2627         99
  36.2813         89
  36.2999        119
  36.3185         87
  36.3370        109
  36.3556         89
  36.3742         94
  36.3928         98
  36.4113        115
  36.4299         93
  36.4485         88
  36.4671        101
  36.4856        103
  36.5042         93
  36.5228         79
  36.5414         74
  36.5599         99
  36.5785         96
  36.5971        100
  36.6157         95
  36.6342        116
  36.6528         75
  36.6714        109
  36.6900         90
  36.7085         95
  36.7271         91
  36.7457        102
  36.7643         82
  36.7829         97
  36.8014         96
  36.8200         98
  36.8386        113
  36.8572         72
  36.8757        103
  36.8943        105
  36.9129         81
  36.9315         99
  36.9500         86
  36.9686         90
  36.9872         96
  37.0058        106
  37.0243        107
  37.0429         83
  37.0615         86
  37.0801         99
  37.0986        105
  37.1172         85
  37.1358        103
  37.1544        102
  37.1729         97
  37.1915         91
  37.2101         99
  37.2287         96
  37.2472         86
  37.2658         94
  37.2844        102
  37.3030        105
  37.3215        106
  37.3401        104
  37.3587        107
  37.3773         78
  37.3958         91
  37.4144        111
  37.4330        102
  37.4516        124
  37.4701        152
  37.4887        139
  37.5073        149
  37.5259        132
  37.5445        100
  37.5630         99
  37.5816        122
  37.6002        126
  37.6188        115
  37.6373         99
  37.6559        107
  37.6745         95
  37.6931         85
  37.7116         89
  37.7302         85
  37.7488         79
  37.7674         90
  37.7859         94
  37.8045        103
  37.8231         93
  37.8417         93
  37.8602        103
  37.8788         88
  37.8974         99
  37.9160         88
  37.9345         75
  37.9531         92
  37.9717        103
  37.9903        103
  38.0088         93
  38.0274         75
  38.0460        107
  38.0646         93
  38.0831        109
  38.1017        102
  38.1203         89
  38.1389         96
  38.1574         89
  38.1760         81
  38.1946         92
  38.2132         85
  38.2317        102
  38.2503         83
  38.2689         89
  38.2875         81
  38.3061         96
  38.3246         80
  38.3432         82
  38.3618         85
  38.3804         83
  38.3989         75
  38.4175         81
  38.4361         69
  38.4547         89
  38.4732         83
  38.4918         98
  38.5104         64
  38.5290         82
  38.5475         84
  38.5661         95
  38.5847         86
  38.6033         73
  38.6218        100
  38.6404         82
  38.6590         91
  38.6776         92
  38.6961         87
  38.7147         86
  38.7333         74
  38.7519         89
  38.7704         82
  38.7890         73
  38.8076         98
  38.8262         94
  38.8447         87
  38.8633         90
  38.8819         82
  38.9005         84
  38.9190         95
  38.9376         93
  38.9562         91
  38.9748         78
  38.9933         87
  39.0119         79
  39.0305         95
  39.0491         91
  39.0677        105
  39.0862        102
  39.1048         86
  39.1234         78
  39.1420         95
  39.1605         79
  39.1791         86
  39.1977        111
  39.2163         95
  39.2348         73
  39.2534         79
  39.2720         73
  39.2906         71
  39.3091         79
  39.3277         92
  39.3463         89
  39.3649         65
  39.3834         91
  39.4020         82
  39.4206         85
  39.4392         68
  39.4577         88
  39.4763         77
  39.4949         81
  39.5135         96
  39.5320         87
  39.5506         68
  39.5692         67
  39.5878         79
  39.6063         86
  39.6249         80
  39.6435         94
  39.6621         73
  39.6806         73
  39.6992         79
  39.7178         74
  39.7364         85
  39.7549         76
  39.7735         75
  39.7921         76
  39.8107         89
  39.8293         76
  39.8478         78
  39.8664         71
  39.8850         83
  39.9036         81
  39.9221         87
  39.9407         80
  39.9593         86
  39.9779         79
  39.9964         90
  40.0150         77
  40.0336         85
  40.0522         68
  40.0707         90
  40.0893        112
  40.1079         80
  40.1265         87
  40.1450         77
  40.1636         88
  40.1822         61
  40.2008         89
  40.2193         78
  40.2379         75
  40.2565         71
  40.2751         82
  40.2936         85
  40.3122         69
  40.3308         71
  40.3494         91
  40.3679         81
  40.3865         68
  40.4051         92
  40.4237         64
  40.4422         83
  40.4608         75
  40.4794         67
  40.4980         70
  40.5165         73
  40.5351         77
  40.5537         67
  40.5723         78
  40.5908         86
  40.6094         97
  40.6280         76
  40.6466         86
  40.6652         91
  40.6837         76
  40.7023         84
  40.7209         71
  40.7395         70
  40.7580         83
  40.7766         76
  40.7952         78
  40.8138         82
  40.8323         61
  40.8509         64
  40.8695         83
  40.8881         71
  40.9066         75
  40.9252         76
  40.9438         83
  40.9624         79
  40.9809         76
  40.9995         89
  41.0181         94
  41.0367         90
  41.0552         80
  41.0738         81
  41.0924         88
  41.1110         82
  41.1295         82
  41.1481         78
  41.1667         71
  41.1853         86
  41.2038         63
  41.2224         88
  41.2410         75
  41.2596         66
  41.2781         60
  41.2967         77
  41.3153         75
  41.3339         70
  41.3524         66
  41.3710         78
  41.3896         73
  41.4082         60
  41.4268         83
  41.4453         68
  41.4639         65
  41.4825         78
  41.5011         81
  41.5196         73
  41.5382         89
  41.5568         78
  41.5754         64
  41.5939         68
  41.6125         85
  41.6311         67
  41.6497         80
  41.6682         70
  41.6868         78
  41.7054         67
  41.7240         83
  41.7425         79
  41.7611         75
  41.7797         89
  41.7983         82
  41.8168         80
  41.8354         66
  41.8540         74
  41.8726         74
  41.8911         90
  41.9097         77
  41.9283         81
  41.9469         98
  41.9654         79
  41.9840         77
  42.0026         59
  42.0212         71
  42.0397         75
  42.0583         87
  42.0769         67
  42.0955         73
  42.1140         66
  42.1326         79
  42.1512         60
  42.1698         66
  42.1884         60
  42.2069         69
  42.2255         78
  42.2441         79
  42.2627         76
  42.2812         71
  42.2998         84
  42.3184         60
  42.3370         80
  42.3555         74
  42.3741         84
  42.3927         95
  42.4113         77
  42.4298         75
  42.4484         68
  42.4670         76
  42.4856         75
  42.5041         75
  42.5227         81
  42.5413         79
  42.5599         73
  42.5784         76
  42.5970         60
  42.6156         67
  42.6342         67
  42.6527         95
  42.6713         90
  42.6899         91
  42.7085         78
  42.7270         86
  42.7456         83
  42.7642         71
  42.7828         84
  42.8013         75
  42.8199        101
  42.8385         73
  42.8571         72
  42.8756         71
  42.8942         80
  42.9128         83
  42.9314         63
  42.9500         74
  42.9685         64
  42.9871         85
  43.0057         64
  43.0243         70
  43.0428         72
  43.0614         75
  43.0800         85
  43.0986         73
  43.1171         65
  43.1357         79
  43.1543         82
  43.1729         77
  43.1914         72
  43.2100         83
  43.2286         85
  43.2472         85
  43.2657         83
  43.2843         77
  43.3029         69
  43.3215         95
  43.3400         95
  43.3586         78
  43.3772         91
  43.3958         96
  43.4143         88
  43.4329         88
  43.4515         60
  43.4701         81
  43.4886         86
  43.5072         79
  43.5258         98
  43.5444        163
  43.5629        105
  43.5815        112
  43.6001         82
  43.6187         78
  43.6372         93
  43.6558        103
  43.6744        102
  43.6930         87
  43.7116         84
  43.7301         89
  43.7487         89
  43.7673         78
  43.7859         77
  43.8044         75
  43.8230         74
  43.8416         75
  43.8602         76
  43.8787         72
  43.8973         67
  43.9159         65
  43.9345         64
  43.9530         64
  43.9716         66
  43.9902         75
  44.0088         68
  44.0273         76
  44.0459         66
  44.0645         70
  44.0831         68
  44.1016         90
  44.1202         80
  44.1388         82
  44.1574         76
  44.1759         75
  44.1945         86
  44.2131         74
  44.2317         81
  44.2502         74
  44.2688         67
  44.2874         65
  44.3060         89
  44.3245         79
  44.3431         71
  44.3617         77
  44.3803         71
  44.3988         77
  44.4174         62
  44.4360         72
  44.4546         74
  44.4732         63
  44.4917         77
  44.5103         67
  44.5289         75
  44.5475         79
  44.5660         81
  44.5846         72
  44.6032         77
  44.6218         69
  44.6403         79
  44.6589         68
  44.6775         89
  44.6961         80
  44.7146         84
  44.7332         78
  44.7518         61
  44.7704         81
  44.7889         78
  44.8075         89
  44.8261         83
  44.8447         78
  44.8632         75
  44.8818         73
  44.9004         73
  44.9190         77
  44.9375         70
  44.9561         73
  44.9747         70
  44.9933         73
  45.0118         57
  45.0304         57
  45.0490         67
  45.0676         84
  45.0861         72
  45.1047         74
  45.1233         63
  45.1419         63
  45.1604         74
  45.1790         62
  45.1976         73
  45.2162         78
  45.2347         78
  45.2533         76
  45.2719         75
  45.2905         59
  45.3091         58
  45.3276         78
  45.3462         66
  45.3648         60
  45.3834         64
  45.4019         80
  45.4205         68
  45.4391         61
  45.4577         57
  45.4762         63
  45.4948         67
  45.5134         57
  45.5320         83
  45.5505         82
  45.5691         62
  45.5877         81
  45.6063         77
  45.6248         76
  45.6434         60
  45.6620         67
  45.6806         75
  45.6991         71
  45.7177         64
  45.7363         72
  45.7549         65
  45.7734         69
  45.7920         71
  45.8106         72
  45.8292         71
  45.8477         80
  45.8663         70
  45.8849         79
  45.9035         65
  45.9220         54
  45.9406         68
  45.9592         63
  45.9778         59
  45.9963         72
  46.0149         59
  46.0335         66
  46.0521         67
  46.0707         66
  46.0892         63
  46.1078         68
  46.1264         78
  46.1450         53
  46.1635         60
  46.1821         65
  46.2007         70
  46.2193         77
  46.2378         50
  46.2564         62
  46.2750         65
  46.2936         60
  46.3121         65
  46.3307         68
  46.3493         49
  46.3679         72
  46.3864         66
  46.4050         64
  46.4236         51
  46.4422         55
  46.4607         72
  46.4793         66
  46.4979         60
  46.5165         69
  46.5350         67
  46.5536         70
  46.5722         54
  46.5908         79
  46.6093         63
  46.6279         53
  46.6465         73
  46.6651         80
  46.6836         70
  46.7022         60
  46.7208         62
  46.7394         72
  46.7579         68
  46.7765         76
  46.7951         62
  46.8137         71
  46.8323         62
  46.8508         60
  46.8694         54
  46.8880         67
  46.9066         76
  46.9251         72
  46.9437         79
  46.9623         66
  46.9809         67
  46.9994         70
  47.0180         75
  47.0366         79
  47.0552         62
  47.0737         61
  47.0923         75
  47.1109         70
  47.1295         61
  47.1480         72
  47.1666         52
  47.1852         77
  47.2038         72
  47.2223         58
  47.2409         64
  47.2595         54
  47.2781         75
  47.2966         75
  47.3152         63
  47.3338         80
  47.3524         71
  47.3709         75
  47.3895         61
  47.4081         63
  47.4267         73
  47.4452         57
  47.4638         78
  47.4824         65
  47.5010         69
  47.5195         71
  47.5381         71
  47.5567         66
  47.5753         46
  47.5939         80
  47.6124         63
  47.6310         74
  47.6496         70
  47.6682         66
  47.6867         54
  47.7053         79
  47.7239         65
  47.7425         68
  47.7610         67
  47.7796         67
  47.7982         63
  47.8168         51
  47.8353         57
  47.8539         68
  47.8725         57
  47.8911         65
  47.9096         54
  47.9282         71
  47.9468         69
  47.9654         59
  47.9839         41
  48.0025         61
  48.0211         55
  48.0397         75
  48.0582         67
  48.0768         69
  48.0954         60
  48.1140         55
  48.1325         73
  48.1511         54
  48.1697         74
  48.1883         63
  48.2068         78
  48.2254         70
  48.2440         70
  48.2626         66
  48.2811         55
  48.2997         69
  48.3183         71
  48.3369         64
  48.3555         72
  48.3740         66
  48.3926         63
  48.4112         64
  48.4298         56
  48.4483         64
  48.4669         64
  48.4855         55
  48.5041         68
  48.5226         69
  48.5412         61
  48.5598         70
  48.5784         65
  48.5969         64
  48.6155         59
  48.6341         58
  48.6527         49
  48.6712         61
  48.6898         81
  48.7084         60
  48.7270         69
  48.7455         61
  48.7641         73
  48.7827         69
  48.8013         67
  48.8198         66
  48.8384         72
  48.8570         72
  48.8756         67
  48.8941         69
  48.9127         59
  48.9313         62
  48.9499         91
  48.9684        111
  48.9870        108
  49.0056         94
  49.0242        107
  49.0427         95
  49.0613         87
  49.0799         80
  49.0985         84
  49.1171         94
  49.1356        103
  49.1542         89
  49.1728         92
  49.1914         59
  49.2099         75
  49.2285         73
  49.2471         64
  49.2657         91
  49.2842         70
  49.3028         58
  49.3214         50
  49.3400         62
  49.3585         72
  49.3771         69
  49.3957         55
  49.4143         53
  49.4328         51
  49.4514         79
  49.4700         56
  49.4886         62
  49.5071         74
  49.5257         81
  49.5443         60
  49.5629         68
  49.5814         63
  49.6000         64
  49.6186         61
  49.6372         62
  49.6557         65
  49.6743         56
  49.6929         62
  49.7115         69
  49.7300         53
  49.7486         69
  49.7672         63
  49.7858         59
  49.8043         47
  49.8229         48
  49.8415         66
  49.8601         68
  49.8786         54
  49.8972         68
  49.9158         80
  49.9344         67
  49.9530         71
  49.9715         65
  49.9901         70
  50.0087         64
  50.0273         68
  50.0458         43
  50.0644         66
  50.0830         71
  50.1016         59
  50.1201         60
  50.1387         67
  50.1573         60
  50.1759         58
  50.1944         59
  50.2130         65
  50.2316         76
  50.2502         66
  50.2687         73
  50.2873         58
  50.3059         61
  50.3245         61
  50.3430         50
  50.3616         71
  50.3802         63
  50.3988         74
  50.4173         64
  50.4359         52
  50.4545         65
  50.4731         41
  50.4916         66
  50.5102         58
  50.5288         70
  50.5474         65
  50.5659         53
  50.5845         58
  50.6031         67
  50.6217         70
  50.6402         68
  50.6588         59
  50.6774         64
  50.6960         69
  50.7146         70
  50.7331         49
  50.7517         54
  50.7703         62
  50.7889         62
  50.8074         71
  50.8260         63
  50.8446         80
  50.8632         50
  50.8817         60
  50.9003         53
  50.9189         56
  50.9375         60
  50.9560         60
  50.9746         61
  50.9932         56
  51.0118         67
  51.0303         74
  51.0489         71
  51.0675         57
  51.0861         64
  51.1046         57
  51.1232         71
  51.1418         61
  51.1604         59
  51.1789         46
  51.1975         50
  51.2161         67
  51.2347         49
  51.2532         53
  51.2718         52
  51.2904         47
  51.3090         55
  51.3275         72
  51.3461         69
  51.3647         65
  51.3833         67
  51.4018         66
  51.4204         73
  51.4390         70
  51.4576         77
  51.4762         64
  51.4947         64
  51.5133         75
  51.5319         70
  51.5505         68
  51.5690         69
  51.5876         63
  51.6062         57
  51.6248         79
  51.6433         61
  51.6619         58
  51.6805         54
  51.6991         67
  51.7176         61
  51.7362         58
  51.7548         81
  51.7734         67
  51.7919         60
  51.8105         59
  51.8291         54
  51.8477         73
  51.8662         88
  51.8848         63
  51.9034         68
  51.9220         80
  51.9405         58
  51.9591         68
  51.9777         82
  51.9963         70
  52.0148         79
  52.0334         67
  52.0520         66
  52.0706         62
  52.0891         51
  52.1077         57
  52.1263         60
  52.1449         62
  52.1634         76
  52.1820         70
  52.2006         78
  52.2192         58
  52.2378         71
  52.2563         59
  52.2749         59
  52.2935         61
  52.3121         80
  52.3306         47
  52.3492         73
  52.3678         53
  52.3864         55
  52.4049         69
  52.4235         40
  52.4421         56
  52.4607         59
  52.4792         56
  52.4978         63
  52.5164         64
  52.5350         54
  52.5535         67
  52.5721         61
  52.5907         64
  52.6093         57
  52.6278         70
  52.6464         58
  52.6650         62
  52.6836         52
  52.7021         56
  52.7207         48
  52.7393         55
  52.7579         75
  52.7764         62
  52.7950         56
  52.8136         66
  52.8322         58
  52.8507         47
  52.8693         71
  52.8879         47
  52.9065         44
  52.9250         58
  52.9436         53
  52.9622         48
  52.9808         60
  52.9994         66
  53.0179         62
  53.0365         59
  53.0551         74
  53.0737         62
  53.0922         77
  53.1108         58
  53.1294         60
  53.1480         56
  53.1665         57
  53.1851         48
  53.2037         64
  53.2223         74
  53.2408         69
  53.2594         60
  53.2780         54
  53.2966         63
  53.3151         67
  53.3337         66
  53.3523         73
  53.3709         68
  53.3894         61
  53.4080         56
  53.4266         64
  53.4452         51
  53.4637         56
  53.4823         46
  53.5009         55
  53.5195         56
  53.5380         62
  53.5566         61
  53.5752         49
  53.5938         60
  53.6123         68
  53.6309         54
  53.6495         58
  53.6681         61
  53.6866         52
  53.7052         65
  53.7238         67
  53.7424         68
  53.7610         59
  53.7795         56
  53.7981         84
  53.8167         62
  53.8353         53
  53.8538         73
  53.8724         52
  53.8910         66
  53.9096         60
  53.9281         63
  53.9467         65
  53.9653         58
  53.9839         68
  54.0024         78
  54.0210         74
  54.0396         71
  54.0582         89
  54.0767         66
  54.0953         60
  54.1139         72
  54.1325         59
  54.1510         47
  54.1696         69
  54.1882         65
  54.2068         68
  54.2253         61
  54.2439         73
  54.2625         71
  54.2811         63
  54.2996         70
  54.3182         63
  54.3368         57
  54.3554         50
  54.3739         53
  54.3925         54
  54.4111         66
  54.4297         52
  54.4482         43
  54.4668         53
  54.4854         60
  54.5040         62
  54.5225         54
  54.5411         64
  54.5597         57
  54.5783         53
  54.5969         55
  54.6154         65
  54.6340         50
  54.6526         65
  54.6712         47
  54.6897         60
  54.7083         63
  54.7269         64
  54.7455         64
  54.7640         55
  54.7826         59
  54.8012         55
  54.8198         60
  54.8383         47
  54.8569         62
  54.8755         56
  54.8941         47
  54.9126         42
  54.9312         75
  54.9498         57
  54.9684         56
  54.9869         47
  55.0055         58
  55.0241         49
  55.0427         74
  55.0612         45
  55.0798         54
  55.0984         50
  55.1170         55
  55.1355         60
  55.1541         64
  55.1727         45
  55.1913         56
  55.2098         56
  55.2284         49
  55.2470         66
  55.2656         67
  55.2841         63
  55.3027         49
  55.3213         59
  55.3399         48
  55.3585         51
  55.3770         66
  55.3956         55
  55.4142         59
  55.4328         39
  55.4513         58
  55.4699         41
  55.4885         55
  55.5071         56
  55.5256         61
  55.5442         49
  55.5628         51
  55.5814         61
  55.5999         54
  55.6185         43
  55.6371         63
  55.6557         57
  55.6742         68
  55.6928         73
  55.7114         56
  55.7300         39
  55.7485         67
  55.7671         57
  55.7857         66
  55.8043         68
  55.8228         47
  55.8414         60
  55.8600         46
  55.8786         60
  55.8971         60
  55.9157         55
  55.9343         56
  55.9529         61
  55.9714         50
  55.9900         75
  56.0086         57
  56.0272         61
  56.0457         55
  56.0643         72
  56.0829         52
  56.1015         53
  56.1201         51
  56.1386         46
  56.1572         63
  56.1758         45
  56.1944         58
  56.2129         66
  56.2315         62
  56.2501         62
  56.2687         60
  56.2872         68
  56.3058         48
  56.3244         64
  56.3430         56
  56.3615         78
  56.3801         52
  56.3987         62
  56.4173         67
  56.4358         35
  56.4544         63
  56.4730         57
  56.4916         55
  56.5101         46
  56.5287         61
  56.5473         58
  56.5659         65
  56.5844         49
  56.6030         63
  56.6216         39
  56.6402         75
  56.6587         63
  56.6773         51
  56.6959         47
  56.7145         66
  56.7330         63
  56.7516         49
  56.7702         54
  56.7888         47
  56.8073         65
  56.8259         60
  56.8445         67
  56.8631         51
  56.8817         59
  56.9002         55
  56.9188         59
  56.9374         52
  56.9560         51
  56.9745         57
  56.9931         46
  57.0117         53
  57.0303         38
  57.0488         42
  57.0674         54
  57.0860         56
  57.1046         52
  57.1231         59
  57.1417         54
  57.1603         57
  57.1789         58
  57.1974         51
  57.2160         48
  57.2346         52
  57.2532         54
  57.2717         46
  57.2903         45
  57.3089         68
  57.3275         52
  57.3460         59
  57.3646         57
  57.3832         61
  57.4018         54
  57.4203         61
  57.4389         45
  57.4575         56
  57.4761         53
  57.4946         56
  57.5132         65
  57.5318         54
  57.5504         53
  57.5689         62
  57.5875         60
  57.6061         65
  57.6247         53
  57.6433         63
  57.6618         56
  57.6804         53
  57.6990         47
  57.7176         62
  57.7361         62
  57.7547         62
  57.7733         72
  57.7919         61
  57.8104         58
  57.8290         66
  57.8476         53
  57.8662         47
  57.8847         50
  57.9033         55
  57.9219         65
  57.9405         45
  57.9590         52
  57.9776         69
  57.9962         69
  58.0148         51
  58.0333         59
  58.0519         65
  58.0705         48
  58.0891         63
  58.1076         66
  58.1262         45
  58.1448         77
  58.1634         66
  58.1819         48
  58.2005         47
  58.2191         51
  58.2377         65
  58.2562         59
  58.2748         50
  58.2934         59
  58.3120         55
  58.3305         50
  58.3491         61
  58.3677         64
  58.3863         49
  58.4049         49
  58.4234         53
  58.4420         53
  58.4606         63
  58.4792         56
  58.4977         73
  58.5163         50
  58.5349         55
  58.5535         70
  58.5720         42
  58.5906         62
  58.6092         45
  58.6278         70
  58.6463         48
  58.6649         55
  58.6835         47
  58.7021         53
  58.7206         56
  58.7392         67
  58.7578         66
  58.7764         60
  58.7949         46
  58.8135         57
  58.8321         54
  58.8507         69
  58.8692         50
  58.8878         52
  58.9064         51
  58.9250         45
  58.9435         49
  58.9621         52
  58.9807         51
  58.9993         51
  59.0178         60
  59.0364         67
  59.0550         65
  59.0736         57
  59.0921         76
  59.1107         58
  59.1293         55
  59.1479         50
  59.1664         67
  59.1850         57
  59.2036         67
  59.2222         43
  59.2408         44
  59.2593         50
  59.2779         66
  59.2965         61
  59.3151         79
  59.3336         58
  59.3522         47
  59.3708         58
  59.3894         52
  59.4079         42
  59.4265         49
  59.4451         57
  59.4637         58
  59.4822         55
  59.5008         56
  59.5194         69
  59.5380         55
  59.5565         63
  59.5751         58
  59.5937         60
  59.6123         59
  59.6308         58
  59.6494         65
  59.6680         51
  59.6866         48
  59.7051         56
  59.7237         53
  59.7423         41
  59.7609         50
  59.7794         47
  59.7980         48
  59.8166         47
  59.8352         57
  59.8537         46
  59.8723         48
  59.8909         51
  59.9095         48
  59.9280         65
  59.9466         44
  59.9652         56
  59.9838         51
  60.0024         49
