; (content of file Y:\Sam\Apurva-07-20-2022\puck2\ML_20220720_5_SJD_0_LaB6-4min.raw)
_FILEVERSION = 3
_SAMPLE = ML_20220720_5_SJD_0_LaB6-4min
_+SAMPLE = 
_SITE = USA
_USER = Administrator
_GONIOMETER_CODE = 20
; Goniometer : D8 theta/2theta, stage : Unknown
_ATTACHMENTS_CODE = 0
_GONIOMETER_RADIUS = 200.5
_FIXED_DIVSLIT = 0.6
_FIXED_SAMPLESLIT = 0
_SOLLER_SLITS = 2
_FIXED_DETSLIT = 9.55
_MONOCHROMATOR = 0
; Incident beam monochromator : None
_SOLLER_SLITS_2 = N
_THIN_FILM = N
_BETA_FILTER = Y
_FIXED_ANTISLIT = 5.89
_ANALYZER_CODE = 0
; Received beam analyzer : None
_DATEMEASURED = "25-Jul-2022 17:42:33"
_WL_UNIT = A
_WL1 = 1.5406
_WL2 = 1.54439
_WL3 = 1.39222
_WLRATIO = 0.5
_ANODE = Cu
_V4_INF_CREATOR = XRDWizard
_V4_INF_CREATOR_VERSION = V2.9.0.22
_V4_INF_WIZARD_VERSION = V2.9.0.22
_V4_INF_WIZARD_ADDINS = V2.9.0.22
_V4_INF_WIZARD_DOCTYPE = XRD
_V4_INF_OSUSER = McQueenLab
_V4_INF_USER = Administrator
_V4_INF_SITE = USA
_V4_INF_SAMPLEID = ML_20220720_5_SJD_0_LaB6-4min

; Data for range 1
_DRIVE = COUPLED
_STEPTIME = 11.28
_STEPSIZE = 0.0185756
_STEPMODE = C
_START = 5
_THETA = 2.5
_2THETA = 5
_KHI = 0
_PHI = 0
_X = 0
_Y = 0
_Z = 0
_DETECTOR = 5
; Detector type : Unknown
_DETECTORSLIT = unkn
_AUX1 = 0
_AUX2 = 0
_AUX3 = 0
_TIMESTARTED = 15
_TEMP_RATE = -1
_TEMP_DELAY = -1
_KV = 40
_MA = 40
_RANGE_WL = 1.5406
_3DPLANE = 0
_V4_ADDITIONALDETECTOR = 257
_V4_PSD2THETA = 3.3882
_V4_PSDCHANNEL1 = 0
_V4_PSDAPERTURE = 12.68
_V4_PSDTYPE = 5
_V4_PSDFIXED = 0
_V4_COUNTERS_MASK = 4096
_V4_DRIVES_MASK = 0
_V4_ENCODERS_MASK = 0
_2THETACOUNTS = 1
; 2THETA  PSD
   5.0000        277
   5.0186        265
   5.0372        238
   5.0557        245
   5.0743        237
   5.0929        276
   5.1115        254
   5.1300        315
   5.1486        256
   5.1672        279
   5.1858        251
   5.2043        242
   5.2229        248
   5.2415        229
   5.2601        236
   5.2786        239
   5.2972        251
   5.3158        224
   5.3344        248
   5.3529        245
   5.3715        234
   5.3901        241
   5.4087        236
   5.4272        251
   5.4458        243
   5.4644        250
   5.4830        246
   5.5015        205
   5.5201        256
   5.5387        237
   5.5573        250
   5.5758        196
   5.5944        209
   5.6130        210
   5.6316        228
   5.6501        203
   5.6687        208
   5.6873        225
   5.7059        214
   5.7244        195
   5.7430        228
   5.7616        221
   5.7802        205
   5.7988        196
   5.8173        200
   5.8359        190
   5.8545        216
   5.8731        213
   5.8916        195
   5.9102        199
   5.9288        164
   5.9474        213
   5.9659        206
   5.9845        211
   6.0031        198
   6.0217        203
   6.0402        195
   6.0588        234
   6.0774        198
   6.0960        182
   6.1145        185
   6.1331        194
   6.1517        192
   6.1703        206
   6.1888        201
   6.2074        204
   6.2260        192
   6.2446        178
   6.2631        214
   6.2817        203
   6.3003        161
   6.3189        194
   6.3374        193
   6.3560        186
   6.3746        172
   6.3932        161
   6.4117        189
   6.4303        207
   6.4489        178
   6.4675        185
   6.4860        161
   6.5046        188
   6.5232        176
   6.5418        183
   6.5604        175
   6.5789        179
   6.5975        169
   6.6161        171
   6.6347        182
   6.6532        161
   6.6718        163
   6.6904        177
   6.7090        171
   6.7275        186
   6.7461        171
   6.7647        169
   6.7833        185
   6.8018        161
   6.8204        165
   6.8390        157
   6.8576        177
   6.8761        176
   6.8947        162
   6.9133        181
   6.9319        164
   6.9504        138
   6.9690        180
   6.9876        173
   7.0062        188
   7.0247        158
   7.0433        155
   7.0619        179
   7.0805        146
   7.0990        165
   7.1176        166
   7.1362        158
   7.1548        143
   7.1733        170
   7.1919        146
   7.2105        144
   7.2291        168
   7.2476        166
   7.2662        181
   7.2848        163
   7.3034        167
   7.3220        137
   7.3405        159
   7.3591        164
   7.3777        167
   7.3963        176
   7.4148        165
   7.4334        156
   7.4520        175
   7.4706        143
   7.4891        144
   7.5077        176
   7.5263        151
   7.5449        164
   7.5634        168
   7.5820        193
   7.6006        175
   7.6192        188
   7.6377        178
   7.6563        172
   7.6749        164
   7.6935        169
   7.7120        161
   7.7306        177
   7.7492        208
   7.7678        176
   7.7863        163
   7.8049        193
   7.8235        193
   7.8421        192
   7.8606        201
   7.8792        179
   7.8978        191
   7.9164        191
   7.9349        172
   7.9535        172
   7.9721        162
   7.9907        184
   8.0092        198
   8.0278        154
   8.0464        189
   8.0650        178
   8.0835        203
   8.1021        170
   8.1207        214
   8.1393        203
   8.1579        214
   8.1764        183
   8.1950        195
   8.2136        211
   8.2322        192
   8.2507        178
   8.2693        187
   8.2879        196
   8.3065        181
   8.3250        184
   8.3436        211
   8.3622        209
   8.3808        193
   8.3993        249
   8.4179        187
   8.4365        209
   8.4551        191
   8.4736        206
   8.4922        194
   8.5108        208
   8.5294        203
   8.5479        204
   8.5665        218
   8.5851        167
   8.6037        207
   8.6222        197
   8.6408        199
   8.6594        220
   8.6780        192
   8.6965        205
   8.7151        202
   8.7337        207
   8.7523        200
   8.7708        196
   8.7894        202
   8.8080        236
   8.8266        203
   8.8451        206
   8.8637        192
   8.8823        202
   8.9009        209
   8.9195        206
   8.9380        218
   8.9566        216
   8.9752        218
   8.9938        220
   9.0123        215
   9.0309        219
   9.0495        225
   9.0681        197
   9.0866        203
   9.1052        239
   9.1238        219
   9.1424        208
   9.1609        241
   9.1795        229
   9.1981        240
   9.2167        210
   9.2352        226
   9.2538        220
   9.2724        223
   9.2910        230
   9.3095        227
   9.3281        230
   9.3467        207
   9.3653        222
   9.3838        217
   9.4024        218
   9.4210        230
   9.4396        225
   9.4581        215
   9.4767        250
   9.4953        220
   9.5139        225
   9.5324        220
   9.5510        216
   9.5696        201
   9.5882        218
   9.6067        227
   9.6253        230
   9.6439        197
   9.6625        236
   9.6811        243
   9.6996        232
   9.7182        243
   9.7368        249
   9.7554        238
   9.7739        239
   9.7925        227
   9.8111        225
   9.8297        220
   9.8482        255
   9.8668        251
   9.8854        258
   9.9040        236
   9.9225        236
   9.9411        235
   9.9597        238
   9.9783        251
   9.9968        233
  10.0154        251
  10.0340        262
  10.0526        221
  10.0711        269
  10.0897        260
  10.1083        231
  10.1269        197
  10.1454        246
  10.1640        246
  10.1826        259
  10.2012        234
  10.2197        246
  10.2383        223
  10.2569        251
  10.2755        250
  10.2940        262
  10.3126        236
  10.3312        218
  10.3498        246
  10.3683        248
  10.3869        255
  10.4055        256
  10.4241        247
  10.4427        255
  10.4612        243
  10.4798        254
  10.4984        238
  10.5170        252
  10.5355        263
  10.5541        246
  10.5727        220
  10.5913        252
  10.6098        249
  10.6284        285
  10.6470        245
  10.6656        237
  10.6841        239
  10.7027        246
  10.7213        223
  10.7399        215
  10.7584        238
  10.7770        248
  10.7956        245
  10.8142        242
  10.8327        267
  10.8513        250
  10.8699        267
  10.8885        260
  10.9070        242
  10.9256        242
  10.9442        245
  10.9628        262
  10.9813        233
  10.9999        250
  11.0185        222
  11.0371        232
  11.0556        223
  11.0742        238
  11.0928        261
  11.1114        230
  11.1299        243
  11.1485        220
  11.1671        224
  11.1857        242
  11.2043        241
  11.2228        227
  11.2414        243
  11.2600        262
  11.2786        260
  11.2971        264
  11.3157        227
  11.3343        229
  11.3529        253
  11.3714        229
  11.3900        236
  11.4086        229
  11.4272        228
  11.4457        259
  11.4643        231
  11.4829        243
  11.5015        245
  11.5200        213
  11.5386        248
  11.5572        238
  11.5758        248
  11.5943        250
  11.6129        239
  11.6315        254
  11.6501        257
  11.6686        256
  11.6872        266
  11.7058        202
  11.7244        232
  11.7429        233
  11.7615        247
  11.7801        282
  11.7987        238
  11.8172        260
  11.8358        233
  11.8544        236
  11.8730        227
  11.8915        223
  11.9101        233
  11.9287        246
  11.9473        228
  11.9659        263
  11.9844        220
  12.0030        239
  12.0216        233
  12.0402        210
  12.0587        224
  12.0773        234
  12.0959        213
  12.1145        252
  12.1330        225
  12.1516        220
  12.1702        219
  12.1888        224
  12.2073        230
  12.2259        213
  12.2445        213
  12.2631        205
  12.2816        230
  12.3002        233
  12.3188        214
  12.3374        211
  12.3559        229
  12.3745        223
  12.3931        214
  12.4117        215
  12.4302        232
  12.4488        234
  12.4674        221
  12.4860        228
  12.5045        215
  12.5231        212
  12.5417        218
  12.5603        218
  12.5788        216
  12.5974        223
  12.6160        225
  12.6346        240
  12.6531        234
  12.6717        242
  12.6903        224
  12.7089        227
  12.7274        215
  12.7460        180
  12.7646        239
  12.7832        245
  12.8018        242
  12.8203        208
  12.8389        196
  12.8575        202
  12.8761        223
  12.8946        194
  12.9132        196
  12.9318        233
  12.9504        192
  12.9689        192
  12.9875        209
  13.0061        212
  13.0247        212
  13.0432        204
  13.0618        208
  13.0804        200
  13.0990        220
  13.1175        203
  13.1361        233
  13.1547        185
  13.1733        231
  13.1918        219
  13.2104        207
  13.2290        218
  13.2476        209
  13.2661        198
  13.2847        223
  13.3033        179
  13.3219        193
  13.3404        219
  13.3590        208
  13.3776        218
  13.3962        200
  13.4147        207
  13.4333        186
  13.4519        193
  13.4705        186
  13.4890        185
  13.5076        191
  13.5262        238
  13.5448        201
  13.5634        211
  13.5819        190
  13.6005        214
  13.6191        201
  13.6377        220
  13.6562        190
  13.6748        173
  13.6934        175
  13.7120        200
  13.7305        184
  13.7491        182
  13.7677        176
  13.7863        205
  13.8048        187
  13.8234        170
  13.8420        166
  13.8606        185
  13.8791        198
  13.8977        207
  13.9163        204
  13.9349        176
  13.9534        186
  13.9720        214
  13.9906        192
  14.0092        202
  14.0277        179
  14.0463        186
  14.0649        181
  14.0835        197
  14.1020        187
  14.1206        176
  14.1392        167
  14.1578        170
  14.1763        180
  14.1949        169
  14.2135        156
  14.2321        177
  14.2506        202
  14.2692        176
  14.2878        175
  14.3064        195
  14.3250        201
  14.3435        181
  14.3621        194
  14.3807        184
  14.3993        171
  14.4178        173
  14.4364        177
  14.4550        187
  14.4736        172
  14.4921        165
  14.5107        161
  14.5293        160
  14.5479        154
  14.5664        158
  14.5850        184
  14.6036        156
  14.6222        158
  14.6407        176
  14.6593        172
  14.6779        207
  14.6965        177
  14.7150        190
  14.7336        163
  14.7522        168
  14.7708        170
  14.7893        139
  14.8079        169
  14.8265        172
  14.8451        162
  14.8636        152
  14.8822        189
  14.9008        167
  14.9194        145
  14.9379        162
  14.9565        157
  14.9751        175
  14.9937        141
  15.0122        183
  15.0308        170
  15.0494        188
  15.0680        162
  15.0866        159
  15.1051        185
  15.1237        186
  15.1423        176
  15.1609        168
  15.1794        172
  15.1980        167
  15.2166        179
  15.2352        211
  15.2537        189
  15.2723        203
  15.2909        172
  15.3095        172
  15.3280        158
  15.3466        156
  15.3652        172
  15.3838        180
  15.4023        175
  15.4209        151
  15.4395        159
  15.4581        171
  15.4766        176
  15.4952        185
  15.5138        193
  15.5324        152
  15.5509        163
  15.5695        157
  15.5881        160
  15.6067        172
  15.6252        192
  15.6438        188
  15.6624        164
  15.6810        179
  15.6995        152
  15.7181        165
  15.7367        160
  15.7553        137
  15.7738        181
  15.7924        182
  15.8110        192
  15.8296        187
  15.8482        157
  15.8667        162
  15.8853        174
  15.9039        176
  15.9225        172
  15.9410        187
  15.9596        156
  15.9782        151
  15.9968        167
  16.0153        160
  16.0339        163
  16.0525        154
  16.0711        183
  16.0896        166
  16.1082        179
  16.1268        186
  16.1454        163
  16.1639        152
  16.1825        146
  16.2011        149
  16.2197        170
  16.2382        168
  16.2568        170
  16.2754        179
  16.2940        184
  16.3125        179
  16.3311        162
  16.3497        177
  16.3683        184
  16.3868        149
  16.4054        177
  16.4240        156
  16.4426        151
  16.4611        159
  16.4797        161
  16.4983        175
  16.5169        153
  16.5354        177
  16.5540        170
  16.5726        172
  16.5912        166
  16.6097        175
  16.6283        162
  16.6469        164
  16.6655        162
  16.6841        155
  16.7026        151
  16.7212        178
  16.7398        200
  16.7584        159
  16.7769        186
  16.7955        164
  16.8141        161
  16.8327        149
  16.8512        167
  16.8698        167
  16.8884        153
  16.9070        168
  16.9255        164
  16.9441        164
  16.9627        168
  16.9813        154
  16.9998        164
  17.0184        166
  17.0370        171
  17.0556        188
  17.0741        169
  17.0927        168
  17.1113        163
  17.1299        159
  17.1484        159
  17.1670        168
  17.1856        163
  17.2042        144
  17.2227        180
  17.2413        184
  17.2599        165
  17.2785        159
  17.2970        155
  17.3156        163
  17.3342        144
  17.3528        160
  17.3713        153
  17.3899        180
  17.4085        171
  17.4271        166
  17.4457        167
  17.4642        150
  17.4828        174
  17.5014        140
  17.5200        174
  17.5385        165
  17.5571        185
  17.5757        169
  17.5943        153
  17.6128        129
  17.6314        177
  17.6500        176
  17.6686        160
  17.6871        170
  17.7057        176
  17.7243        175
  17.7429        167
  17.7614        150
  17.7800        175
  17.7986        171
  17.8172        162
  17.8357        168
  17.8543        170
  17.8729        157
  17.8915        174
  17.9100        182
  17.9286        166
  17.9472        155
  17.9658        152
  17.9843        169
  18.0029        165
  18.0215        169
  18.0401        163
  18.0586        159
  18.0772        166
  18.0958        138
  18.1144        152
  18.1329        162
  18.1515        195
  18.1701        171
  18.1887        149
  18.2073        165
  18.2258        169
  18.2444        169
  18.2630        179
  18.2816        178
  18.3001        177
  18.3187        155
  18.3373        181
  18.3559        166
  18.3744        160
  18.3930        171
  18.4116        164
  18.4302        182
  18.4487        151
  18.4673        176
  18.4859        161
  18.5045        154
  18.5230        149
  18.5416        166
  18.5602        193
  18.5788        137
  18.5973        164
  18.6159        141
  18.6345        159
  18.6531        148
  18.6716        156
  18.6902        156
  18.7088        169
  18.7274        169
  18.7459        189
  18.7645        171
  18.7831        178
  18.8017        173
  18.8202        157
  18.8388        183
  18.8574        156
  18.8760        182
  18.8945        180
  18.9131        199
  18.9317        164
  18.9503        166
  18.9689        152
  18.9874        178
  19.0060        168
  19.0246        175
  19.0432        179
  19.0617        169
  19.0803        175
  19.0989        171
  19.1175        181
  19.1360        163
  19.1546        189
  19.1732        201
  19.1918        175
  19.2103        173
  19.2289        140
  19.2475        177
  19.2661        184
  19.2846        196
  19.3032        188
  19.3218        159
  19.3404        190
  19.3589        181
  19.3775        170
  19.3961        198
  19.4147        177
  19.4332        196
  19.4518        160
  19.4704        171
  19.4890        177
  19.5075        194
  19.5261        187
  19.5447        160
  19.5633        178
  19.5818        159
  19.6004        166
  19.6190        185
  19.6376        172
  19.6561        194
  19.6747        162
  19.6933        185
  19.7119        195
  19.7305        163
  19.7490        183
  19.7676        156
  19.7862        190
  19.8048        187
  19.8233        179
  19.8419        177
  19.8605        192
  19.8791        169
  19.8976        193
  19.9162        170
  19.9348        166
  19.9534        179
  19.9719        177
  19.9905        173
  20.0091        190
  20.0277        189
  20.0462        177
  20.0648        209
  20.0834        197
  20.1020        167
  20.1205        200
  20.1391        196
  20.1577        196
  20.1763        177
  20.1948        203
  20.2134        190
  20.2320        190
  20.2506        212
  20.2691        185
  20.2877        189
  20.3063        185
  20.3249        197
  20.3434        176
  20.3620        175
  20.3806        200
  20.3992        181
  20.4177        158
  20.4363        198
  20.4549        229
  20.4735        209
  20.4921        160
  20.5106        170
  20.5292        180
  20.5478        202
  20.5664        193
  20.5849        186
  20.6035        161
  20.6221        177
  20.6407        174
  20.6592        178
  20.6778        205
  20.6964        195
  20.7150        184
  20.7335        176
  20.7521        182
  20.7707        201
  20.7893        174
  20.8078        169
  20.8264        189
  20.8450        181
  20.8636        196
  20.8821        180
  20.9007        165
  20.9193        192
  20.9379        179
  20.9564        196
  20.9750        203
  20.9936        176
  21.0122        203
  21.0307        188
  21.0493        188
  21.0679        197
  21.0865        217
  21.1050        221
  21.1236        194
  21.1422        230
  21.1608        229
  21.1793        234
  21.1979        277
  21.2165        332
  21.2351        327
  21.2537        300
  21.2722        296
  21.2908        326
  21.3094        317
  21.3280        392
  21.3465        509
  21.3651        541
  21.3837        454
  21.4023        406
  21.4208        344
  21.4394        267
  21.4580        249
  21.4766        203
  21.4951        216
  21.5137        205
  21.5323        204
  21.5509        209
  21.5694        200
  21.5880        179
  21.6066        212
  21.6252        188
  21.6437        202
  21.6623        197
  21.6809        204
  21.6995        205
  21.7180        187
  21.7366        176
  21.7552        201
  21.7738        221
  21.7923        232
  21.8109        218
  21.8295        200
  21.8481        208
  21.8666        195
  21.8852        211
  21.9038        209
  21.9224        208
  21.9409        186
  21.9595        184
  21.9781        191
  21.9967        192
  22.0152        205
  22.0338        186
  22.0524        202
  22.0710        203
  22.0896        206
  22.1081        238
  22.1267        218
  22.1453        184
  22.1639        205
  22.1824        199
  22.2010        198
  22.2196        206
  22.2382        185
  22.2567        184
  22.2753        194
  22.2939        193
  22.3125        188
  22.3310        188
  22.3496        215
  22.3682        230
  22.3868        184
  22.4053        217
  22.4239        194
  22.4425        196
  22.4611        231
  22.4796        222
  22.4982        206
  22.5168        184
  22.5354        208
  22.5539        209
  22.5725        193
  22.5911        193
  22.6097        204
  22.6282        193
  22.6468        216
  22.6654        199
  22.6840        195
  22.7025        204
  22.7211        220
  22.7397        173
  22.7583        195
  22.7768        183
  22.7954        210
  22.8140        201
  22.8326        185
  22.8512        204
  22.8697        204
  22.8883        187
  22.9069        197
  22.9255        186
  22.9440        227
  22.9626        203
  22.9812        194
  22.9998        193
  23.0183        207
  23.0369        225
  23.0555        196
  23.0741        174
  23.0926        220
  23.1112        225
  23.1298        210
  23.1484        197
  23.1669        165
  23.1855        201
  23.2041        189
  23.2227        228
  23.2412        219
  23.2598        198
  23.2784        212
  23.2970        188
  23.3155        205
  23.3341        196
  23.3527        182
  23.3713        228
  23.3898        224
  23.4084        203
  23.4270        202
  23.4456        194
  23.4641        205
  23.4827        195
  23.5013        205
  23.5199        198
  23.5384        193
  23.5570        194
  23.5756        203
  23.5942        206
  23.6128        195
  23.6313        205
  23.6499        188
  23.6685        208
  23.6871        207
  23.7056        200
  23.7242        244
  23.7428        190
  23.7614        204
  23.7799        195
  23.7985        204
  23.8171        185
  23.8357        215
  23.8542        198
  23.8728        217
  23.8914        220
  23.9100        191
  23.9285        196
  23.9471        189
  23.9657        198
  23.9843        216
  24.0028        186
  24.0214        219
  24.0400        201
  24.0586        211
  24.0771        206
  24.0957        200
  24.1143        207
  24.1329        200
  24.1514        205
  24.1700        212
  24.1886        238
  24.2072        221
  24.2257        236
  24.2443        209
  24.2629        203
  24.2815        230
  24.3000        208
  24.3186        208
  24.3372        221
  24.3558        226
  24.3744        212
  24.3929        208
  24.4115        228
  24.4301        220
  24.4487        198
  24.4672        197
  24.4858        216
  24.5044        197
  24.5230        211
  24.5415        193
  24.5601        184
  24.5787        217
  24.5973        195
  24.6158        220
  24.6344        195
  24.6530        200
  24.6716        199
  24.6901        220
  24.7087        184
  24.7273        215
  24.7459        213
  24.7644        202
  24.7830        212
  24.8016        199
  24.8202        203
  24.8387        189
  24.8573        210
  24.8759        187
  24.8945        189
  24.9130        179
  24.9316        211
  24.9502        189
  24.9688        192
  24.9873        177
  25.0059        194
  25.0245        221
  25.0431        206
  25.0616        168
  25.0802        188
  25.0988        197
  25.1174        192
  25.1360        194
  25.1545        199
  25.1731        198
  25.1917        190
  25.2103        204
  25.2288        197
  25.2474        192
  25.2660        184
  25.2846        198
  25.3031        214
  25.3217        172
  25.3403        201
  25.3589        163
  25.3774        215
  25.3960        194
  25.4146        190
  25.4332        188
  25.4517        207
  25.4703        215
  25.4889        191
  25.5075        193
  25.5260        218
  25.5446        200
  25.5632        204
  25.5818        204
  25.6003        236
  25.6189        182
  25.6375        188
  25.6561        186
  25.6746        172
  25.6932        171
  25.7118        189
  25.7304        207
  25.7489        201
  25.7675        177
  25.7861        186
  25.8047        201
  25.8232        179
  25.8418        168
  25.8604        203
  25.8790        204
  25.8976        202
  25.9161        218
  25.9347        200
  25.9533        202
  25.9719        190
  25.9904        215
  26.0090        196
  26.0276        192
  26.0462        180
  26.0647        202
  26.0833        175
  26.1019        197
  26.1205        169
  26.1390        160
  26.1576        180
  26.1762        201
  26.1948        170
  26.2133        172
  26.2319        170
  26.2505        176
  26.2691        177
  26.2876        173
  26.3062        188
  26.3248        189
  26.3434        173
  26.3619        205
  26.3805        204
  26.3991        186
  26.4177        203
  26.4362        181
  26.4548        204
  26.4734        186
  26.4920        190
  26.5105        174
  26.5291        181
  26.5477        222
  26.5663        204
  26.5848        194
  26.6034        194
  26.6220        186
  26.6406        156
  26.6591        192
  26.6777        174
  26.6963        196
  26.7149        203
  26.7335        172
  26.7520        163
  26.7706        173
  26.7892        192
  26.8078        197
  26.8263        192
  26.8449        178
  26.8635        177
  26.8821        210
  26.9006        205
  26.9192        185
  26.9378        189
  26.9564        188
  26.9749        187
  26.9935        166
  27.0121        170
  27.0307        175
  27.0492        169
  27.0678        193
  27.0864        213
  27.1050        202
  27.1235        193
  27.1421        203
  27.1607        210
  27.1793        238
  27.1978        263
  27.2164        234
  27.2350        237
  27.2536        233
  27.2721        227
  27.2907        206
  27.3093        190
  27.3279        178
  27.3464        170
  27.3650        221
  27.3836        190
  27.4022        190
  27.4207        194
  27.4393        171
  27.4579        200
  27.4765        163
  27.4951        181
  27.5136        182
  27.5322        186
  27.5508        195
  27.5694        175
  27.5879        179
  27.6065        196
  27.6251        173
  27.6437        174
  27.6622        174
  27.6808        163
  27.6994        187
  27.7180        183
  27.7365        168
  27.7551        158
  27.7737        176
  27.7923        190
  27.8108        187
  27.8294        186
  27.8480        179
  27.8666        177
  27.8851        160
  27.9037        187
  27.9223        170
  27.9409        168
  27.9594        192
  27.9780        195
  27.9966        176
  28.0152        171
  28.0337        177
  28.0523        173
  28.0709        190
  28.0895        181
  28.1080        168
  28.1266        177
  28.1452        166
  28.1638        144
  28.1823        171
  28.2009        179
  28.2195        160
  28.2381        154
  28.2567        159
  28.2752        169
  28.2938        173
  28.3124        159
  28.3310        165
  28.3495        164
  28.3681        171
  28.3867        166
  28.4053        159
  28.4238        178
  28.4424        198
  28.4610        183
  28.4796        165
  28.4981        183
  28.5167        166
  28.5353        167
  28.5539        165
  28.5724        167
  28.5910        162
  28.6096        144
  28.6282        172
  28.6467        137
  28.6653        167
  28.6839        166
  28.7025        173
  28.7210        159
  28.7396        173
  28.7582        173
  28.7768        160
  28.7953        165
  28.8139        175
  28.8325        152
  28.8511        145
  28.8696        158
  28.8882        169
  28.9068        145
  28.9254        175
  28.9439        162
  28.9625        172
  28.9811        174
  28.9997        168
  29.0183        159
  29.0368        171
  29.0554        168
  29.0740        167
  29.0926        171
  29.1111        161
  29.1297        150
  29.1483        151
  29.1669        136
  29.1854        167
  29.2040        158
  29.2226        135
  29.2412        168
  29.2597        172
  29.2783        157
  29.2969        153
  29.3155        175
  29.3340        170
  29.3526        152
  29.3712        127
  29.3898        153
  29.4083        185
  29.4269        174
  29.4455        149
  29.4641        170
  29.4826        150
  29.5012        171
  29.5198        171
  29.5384        165
  29.5569        160
  29.5755        149
  29.5941        142
  29.6127        184
  29.6312        155
  29.6498        174
  29.6684        168
  29.6870        169
  29.7055        147
  29.7241        170
  29.7427        152
  29.7613        164
  29.7799        167
  29.7984        171
  29.8170        165
  29.8356        159
  29.8542        179
  29.8727        158
  29.8913        152
  29.9099        162
  29.9285        172
  29.9470        183
  29.9656        174
  29.9842        146
  30.0028        150
  30.0213        161
  30.0399        161
  30.0585        152
  30.0771        180
  30.0956        148
  30.1142        175
  30.1328        135
  30.1514        168
  30.1699        159
  30.1885        172
  30.2071        182
  30.2257        158
  30.2442        150
  30.2628        183
  30.2814        134
  30.3000        186
  30.3185        175
  30.3371        220
  30.3557        245
  30.3743        297
  30.3928        342
  30.4114        288
  30.4300        251
  30.4486        235
  30.4671        258
  30.4857        195
  30.5043        196
  30.5229        173
  30.5415        154
  30.5600        163
  30.5786        142
  30.5972        159
  30.6158        166
  30.6343        172
  30.6529        164
  30.6715        113
  30.6901        150
  30.7086        159
  30.7272        146
  30.7458        156
  30.7644        157
  30.7829        148
  30.8015        133
  30.8201        146
  30.8387        142
  30.8572        143
  30.8758        169
  30.8944        139
  30.9130        152
  30.9315        132
  30.9501        128
  30.9687        134
  30.9873        155
  31.0058        165
  31.0244        149
  31.0430        146
  31.0616        158
  31.0801        128
  31.0987        124
  31.1173        167
  31.1359        152
  31.1544        147
  31.1730        138
  31.1916        128
  31.2102        149
  31.2287        137
  31.2473        138
  31.2659        153
  31.2845        145
  31.3030        148
  31.3216        149
  31.3402        166
  31.3588        112
  31.3774        133
  31.3959        141
  31.4145        146
  31.4331        145
  31.4517        170
  31.4702        153
  31.4888        125
  31.5074        132
  31.5260        150
  31.5445        153
  31.5631        139
  31.5817        163
  31.6003        139
  31.6188        123
  31.6374        145
  31.6560        116
  31.6746        129
  31.6931        144
  31.7117        131
  31.7303        138
  31.7489        127
  31.7674        139
  31.7860        137
  31.8046        128
  31.8232        138
  31.8417        128
  31.8603        130
  31.8789        118
  31.8975        136
  31.9160        152
  31.9346        151
  31.9532        151
  31.9718        146
  31.9903        131
  32.0089        142
  32.0275        120
  32.0461        122
  32.0646        137
  32.0832        125
  32.1018        136
  32.1204        141
  32.1390        134
  32.1575        124
  32.1761        155
  32.1947        142
  32.2133        127
  32.2318        143
  32.2504        129
  32.2690        102
  32.2876        135
  32.3061        132
  32.3247        125
  32.3433        117
  32.3619        120
  32.3804        157
  32.3990        123
  32.4176        155
  32.4362        152
  32.4547        139
  32.4733        154
  32.4919        156
  32.5105        136
  32.5290        138
  32.5476        147
  32.5662        143
  32.5848        132
  32.6033        143
  32.6219        134
  32.6405        150
  32.6591        142
  32.6776        121
  32.6962        120
  32.7148        113
  32.7334        128
  32.7519        154
  32.7705        126
  32.7891        132
  32.8077        142
  32.8262        143
  32.8448        107
  32.8634        136
  32.8820        121
  32.9006        135
  32.9191         98
  32.9377        122
  32.9563        153
  32.9749        127
  32.9934        122
  33.0120         99
  33.0306        121
  33.0492        145
  33.0677        144
  33.0863        114
  33.1049        155
  33.1235        125
  33.1420        117
  33.1606        102
  33.1792        136
  33.1978        126
  33.2163        119
  33.2349        115
  33.2535        117
  33.2721        133
  33.2906        138
  33.3092        103
  33.3278         98
  33.3464        135
  33.3649        119
  33.3835        115
  33.4021        131
  33.4207        129
  33.4392        116
  33.4578        100
  33.4764        103
  33.4950        109
  33.5135        133
  33.5321        121
  33.5507        145
  33.5693        130
  33.5878        123
  33.6064        106
  33.6250        131
  33.6436        117
  33.6622        140
  33.6807        102
  33.6993        122
  33.7179        105
  33.7365        105
  33.7550        108
  33.7736        105
  33.7922        101
  33.8108        148
  33.8293        114
  33.8479        120
  33.8665        102
  33.8851        126
  33.9036        123
  33.9222        110
  33.9408        139
  33.9594        125
  33.9779        111
  33.9965        117
  34.0151        114
  34.0337        122
  34.0522        118
  34.0708        110
  34.0894        127
  34.1080        115
  34.1265        103
  34.1451        103
  34.1637        118
  34.1823        122
  34.2008        112
  34.2194        108
  34.2380        116
  34.2566        117
  34.2751        117
  34.2937        114
  34.3123        123
  34.3309        125
  34.3494        108
  34.3680        103
  34.3866        102
  34.4052         94
  34.4238        121
  34.4423        113
  34.4609        130
  34.4795        128
  34.4981        115
  34.5166        129
  34.5352        136
  34.5538        108
  34.5724        119
  34.5909        128
  34.6095        134
  34.6281        128
  34.6467        115
  34.6652        124
  34.6838        132
  34.7024        143
  34.7210        142
  34.7395        155
  34.7581        160
  34.7767        170
  34.7953        174
  34.8138        167
  34.8324        136
  34.8510        143
  34.8696        143
  34.8881        144
  34.9067        115
  34.9253        130
  34.9439        108
  34.9624        109
  34.9810        119
  34.9996        122
  35.0182        121
  35.0367        105
  35.0553         96
  35.0739        110
  35.0925        107
  35.1110        107
  35.1296        135
  35.1482        121
  35.1668        109
  35.1854        105
  35.2039         99
  35.2225        118
  35.2411        104
  35.2597         99
  35.2782         84
  35.2968        125
  35.3154         95
  35.3340        115
  35.3525         91
  35.3711         99
  35.3897         86
  35.4083         93
  35.4268        108
  35.4454        109
  35.4640        117
  35.4826        120
  35.5011         86
  35.5197        104
  35.5383        118
  35.5569        102
  35.5754        101
  35.5940         97
  35.6126         99
  35.6312        106
  35.6497        126
  35.6683         93
  35.6869        117
  35.7055        107
  35.7240        100
  35.7426        105
  35.7612         97
  35.7798        114
  35.7983         95
  35.8169         98
  35.8355        110
  35.8541        109
  35.8726        106
  35.8912         97
  35.9098         99
  35.9284        100
  35.9469         92
  35.9655         85
  35.9841        115
  36.0027        101
  36.0213         97
  36.0398        101
  36.0584         91
  36.0770        109
  36.0956        110
  36.1141         87
  36.1327        103
  36.1513        103
  36.1699         84
  36.1884         99
  36.2070        113
  36.2256         94
  36.2442        103
  36.2627        106
  36.2813        106
  36.2999         93
  36.3185         97
  36.3370         95
  36.3556         76
  36.3742         91
  36.3928         88
  36.4113         92
  36.4299         93
  36.4485         86
  36.4671        100
  36.4856         94
  36.5042        104
  36.5228        102
  36.5414         99
  36.5599         92
  36.5785         87
  36.5971        101
  36.6157         97
  36.6342        111
  36.6528         94
  36.6714        107
  36.6900         89
  36.7085         98
  36.7271         91
  36.7457         98
  36.7643        109
  36.7829        111
  36.8014         96
  36.8200        100
  36.8386        107
  36.8572         93
  36.8757         92
  36.8943         88
  36.9129         95
  36.9315         98
  36.9500        117
  36.9686        108
  36.9872         88
  37.0058        103
  37.0243         92
  37.0429        102
  37.0615        106
  37.0801        109
  37.0986         85
  37.1172         85
  37.1358         98
  37.1544        104
  37.1729         99
  37.1915         86
  37.2101         84
  37.2287         85
  37.2472         87
  37.2658         97
  37.2844         93
  37.3030         92
  37.3215        112
  37.3401        108
  37.3587         86
  37.3773        124
  37.3958        106
  37.4144        125
  37.4330        158
  37.4516        156
  37.4701        133
  37.4887         97
  37.5073        111
  37.5259        149
  37.5445        142
  37.5630        130
  37.5816         90
  37.6002         89
  37.6188         86
  37.6373         88
  37.6559         75
  37.6745        113
  37.6931         93
  37.7116         91
  37.7302         88
  37.7488        104
  37.7674         79
  37.7859         86
  37.8045         94
  37.8231        100
  37.8417         75
  37.8602         85
  37.8788         73
  37.8974         89
  37.9160         83
  37.9345         78
  37.9531         83
  37.9717         90
  37.9903         96
  38.0088         94
  38.0274         78
  38.0460         77
  38.0646         84
  38.0831         76
  38.1017         98
  38.1203         82
  38.1389         90
  38.1574         78
  38.1760         88
  38.1946        101
  38.2132         88
  38.2317         92
  38.2503         85
  38.2689         79
  38.2875        111
  38.3061         80
  38.3246         84
  38.3432        112
  38.3618         98
  38.3804         94
  38.3989         83
  38.4175         84
  38.4361         87
  38.4547         68
  38.4732         92
  38.4918         78
  38.5104        119
  38.5290         75
  38.5475         91
  38.5661         87
  38.5847         74
  38.6033         73
  38.6218         89
  38.6404         69
  38.6590         83
  38.6776         83
  38.6961         79
  38.7147         76
  38.7333         78
  38.7519         97
  38.7704         97
  38.7890         76
  38.8076         74
  38.8262         98
  38.8447        100
  38.8633         92
  38.8819         73
  38.9005         87
  38.9190         90
  38.9376         85
  38.9562         84
  38.9748         67
  38.9933         81
  39.0119         84
  39.0305         84
  39.0491         78
  39.0677         72
  39.0862         83
  39.1048         83
  39.1234         87
  39.1420         97
  39.1605         89
  39.1791         88
  39.1977         71
  39.2163         85
  39.2348         94
  39.2534         91
  39.2720         87
  39.2906         86
  39.3091         62
  39.3277         79
  39.3463         76
  39.3649         93
  39.3834         88
  39.4020         77
  39.4206         94
  39.4392         74
  39.4577         82
  39.4763         69
  39.4949         69
  39.5135         84
  39.5320         77
  39.5506         83
  39.5692         63
  39.5878         82
  39.6063         85
  39.6249        107
  39.6435         80
  39.6621         79
  39.6806         97
  39.6992         80
  39.7178         86
  39.7364         94
  39.7549         72
  39.7735         98
  39.7921         92
  39.8107         80
  39.8293         96
  39.8478         66
  39.8664         78
  39.8850         73
  39.9036         83
  39.9221         72
  39.9407         79
  39.9593         96
  39.9779         82
  39.9964         76
  40.0150         80
  40.0336         92
  40.0522         81
  40.0707         87
  40.0893         93
  40.1079         81
  40.1265         73
  40.1450         62
  40.1636         80
  40.1822         77
  40.2008         72
  40.2193         81
  40.2379         77
  40.2565         79
  40.2751         82
  40.2936         75
  40.3122         80
  40.3308         74
  40.3494         67
  40.3679         85
  40.3865         65
  40.4051         77
  40.4237         63
  40.4422         81
  40.4608         82
  40.4794         70
  40.4980         73
  40.5165         95
  40.5351         73
  40.5537         75
  40.5723         65
  40.5908         81
  40.6094         60
  40.6280         71
  40.6466         85
  40.6652         71
  40.6837         59
  40.7023         74
  40.7209         82
  40.7395         75
  40.7580         78
  40.7766         81
  40.7952         61
  40.8138         75
  40.8323         66
  40.8509         77
  40.8695         68
  40.8881         79
  40.9066         88
  40.9252         72
  40.9438         68
  40.9624         73
  40.9809         77
  40.9995         82
  41.0181         77
  41.0367         98
  41.0552         89
  41.0738         69
  41.0924         69
  41.1110         72
  41.1295         67
  41.1481         59
  41.1667         74
  41.1853         76
  41.2038         88
  41.2224         81
  41.2410         89
  41.2596         84
  41.2781         73
  41.2967         82
  41.3153         79
  41.3339         85
  41.3524         86
  41.3710         90
  41.3896         92
  41.4082         88
  41.4268         70
  41.4453         94
  41.4639         76
  41.4825         70
  41.5011         66
  41.5196         69
  41.5382         69
  41.5568         82
  41.5754         75
  41.5939         89
  41.6125         60
  41.6311         83
  41.6497         79
  41.6682         78
  41.6868         68
  41.7054         69
  41.7240         76
  41.7425         71
  41.7611         77
  41.7797         69
  41.7983         77
  41.8168         88
  41.8354         78
  41.8540         76
  41.8726         66
  41.8911         85
  41.9097         83
  41.9283         64
  41.9469         71
  41.9654         80
  41.9840         77
  42.0026         72
  42.0212         79
  42.0397         69
  42.0583         81
  42.0769         71
  42.0955         68
  42.1140         74
  42.1326         72
  42.1512         94
  42.1698         78
  42.1884         71
  42.2069         76
  42.2255         71
  42.2441         77
  42.2627         61
  42.2812         64
  42.2998         67
  42.3184         87
  42.3370         75
  42.3555         65
  42.3741         76
  42.3927         73
  42.4113         83
  42.4298         77
  42.4484         76
  42.4670         81
  42.4856         80
  42.5041         73
  42.5227         71
  42.5413         90
  42.5599         76
  42.5784         78
  42.5970         68
  42.6156         70
  42.6342         66
  42.6527         74
  42.6713         68
  42.6899         66
  42.7085         76
  42.7270         74
  42.7456         90
  42.7642         71
  42.7828         76
  42.8013         77
  42.8199         75
  42.8385         79
  42.8571         74
  42.8756         78
  42.8942         73
  42.9128         77
  42.9314         77
  42.9500         86
  42.9685         75
  42.9871         62
  43.0057         89
  43.0243         78
  43.0428         77
  43.0614         69
  43.0800         82
  43.0986         84
  43.1171         85
  43.1357         84
  43.1543         78
  43.1729         91
  43.1914         83
  43.2100         89
  43.2286         78
  43.2472         79
  43.2657         89
  43.2843         86
  43.3029         94
  43.3215         71
  43.3400         82
  43.3586         76
  43.3772         90
  43.3958         82
  43.4143         75
  43.4329         83
  43.4515         69
  43.4701         98
  43.4886        119
  43.5072        138
  43.5258        132
  43.5444         91
  43.5629         79
  43.5815         84
  43.6001        106
  43.6187        102
  43.6372        110
  43.6558        100
  43.6744         87
  43.6930         71
  43.7116         80
  43.7301         68
  43.7487         85
  43.7673         75
  43.7859         85
  43.8044         70
  43.8230         76
  43.8416         82
  43.8602         80
  43.8787         64
  43.8973         81
  43.9159         70
  43.9345         73
  43.9530         76
  43.9716         85
  43.9902         76
  44.0088         75
  44.0273         75
  44.0459         66
  44.0645         81
  44.0831         63
  44.1016         65
  44.1202         74
  44.1388         63
  44.1574         91
  44.1759         58
  44.1945         75
  44.2131         71
  44.2317         73
  44.2502         78
  44.2688         75
  44.2874         65
  44.3060         83
  44.3245         76
  44.3431         75
  44.3617         68
  44.3803         74
  44.3988         85
  44.4174         75
  44.4360         66
  44.4546         67
  44.4732         68
  44.4917         82
  44.5103         64
  44.5289         79
  44.5475         70
  44.5660         88
  44.5846         85
  44.6032         70
  44.6218         74
  44.6403         71
  44.6589         87
  44.6775         85
  44.6961         74
  44.7146         86
  44.7332         83
  44.7518         94
  44.7704         76
  44.7889         79
  44.8075         76
  44.8261         85
  44.8447         64
  44.8632         77
  44.8818         78
  44.9004         59
  44.9190         64
  44.9375         78
  44.9561         80
  44.9747         69
  44.9933         66
  45.0118         74
  45.0304         66
  45.0490         72
  45.0676         78
  45.0861         64
  45.1047         86
  45.1233         70
  45.1419         60
  45.1604         59
  45.1790         72
  45.1976         80
  45.2162         59
  45.2347         91
  45.2533         66
  45.2719         71
  45.2905         76
  45.3091         58
  45.3276         68
  45.3462         63
  45.3648         64
  45.3834         65
  45.4019         68
  45.4205         76
  45.4391         58
  45.4577         66
  45.4762         70
  45.4948         70
  45.5134         68
  45.5320         71
  45.5505         67
  45.5691         60
  45.5877         72
  45.6063         73
  45.6248         89
  45.6434         71
  45.6620         73
  45.6806         65
  45.6991         63
  45.7177         77
  45.7363         77
  45.7549         81
  45.7734         52
  45.7920         73
  45.8106         65
  45.8292         67
  45.8477         81
  45.8663         76
  45.8849         65
  45.9035         54
  45.9220         76
  45.9406         64
  45.9592         65
  45.9778         70
  45.9963         89
  46.0149         66
  46.0335         68
  46.0521         69
  46.0707         71
  46.0892         54
  46.1078         64
  46.1264         73
  46.1450         56
  46.1635         57
  46.1821         85
  46.2007         59
  46.2193         68
  46.2378         68
  46.2564         67
  46.2750         57
  46.2936         61
  46.3121         67
  46.3307         74
  46.3493         71
  46.3679         68
  46.3864         68
  46.4050         60
  46.4236         77
  46.4422         67
  46.4607         72
  46.4793         54
  46.4979         75
  46.5165         66
  46.5350         68
  46.5536         45
  46.5722         56
  46.5908         80
  46.6093         63
  46.6279         83
  46.6465         65
  46.6651         65
  46.6836         74
  46.7022         73
  46.7208         72
  46.7394         60
  46.7579         64
  46.7765         58
  46.7951         62
  46.8137         68
  46.8323         81
  46.8508         85
  46.8694         71
  46.8880         68
  46.9066         62
  46.9251         57
  46.9437         62
  46.9623         64
  46.9809         70
  46.9994         61
  47.0180         65
  47.0366         67
  47.0552         86
  47.0737         59
  47.0923         70
  47.1109         55
  47.1295         78
  47.1480         77
  47.1666         64
  47.1852         53
  47.2038         66
  47.2223         64
  47.2409         50
  47.2595         68
  47.2781         62
  47.2966         52
  47.3152         69
  47.3338         56
  47.3524         68
  47.3709         55
  47.3895         64
  47.4081         68
  47.4267         58
  47.4452         51
  47.4638         63
  47.4824         65
  47.5010         80
  47.5195         65
  47.5381         69
  47.5567         60
  47.5753         58
  47.5939         50
  47.6124         69
  47.6310         61
  47.6496         53
  47.6682         72
  47.6867         65
  47.7053         59
  47.7239         49
  47.7425         60
  47.7610         56
  47.7796         65
  47.7982         68
  47.8168         71
  47.8353         67
  47.8539         60
  47.8725         73
  47.8911         75
  47.9096         73
  47.9282         71
  47.9468         61
  47.9654         76
  47.9839         71
  48.0025         58
  48.0211         52
  48.0397         67
  48.0582         54
  48.0768         58
  48.0954         52
  48.1140         55
  48.1325         60
  48.1511         67
  48.1697         52
  48.1883         54
  48.2068         46
  48.2254         61
  48.2440         47
  48.2626         57
  48.2811         62
  48.2997         47
  48.3183         64
  48.3369         69
  48.3555         54
  48.3740         51
  48.3926         62
  48.4112         63
  48.4298         74
  48.4483         76
  48.4669         69
  48.4855         56
  48.5041         60
  48.5226         49
  48.5412         63
  48.5598         65
  48.5784         66
  48.5969         60
  48.6155         78
  48.6341         67
  48.6527         59
  48.6712         78
  48.6898         82
  48.7084         69
  48.7270         61
  48.7455         64
  48.7641         67
  48.7827         71
  48.8013         77
  48.8198         64
  48.8384         60
  48.8570         55
  48.8756         78
  48.8941         76
  48.9127         87
  48.9313        114
  48.9499        132
  48.9684        124
  48.9870         97
  49.0056         95
  49.0242         74
  49.0427         75
  49.0613         72
  49.0799         96
  49.0985        102
  49.1171         87
  49.1356         65
  49.1542         63
  49.1728         54
  49.1914         57
  49.2099         69
  49.2285         59
  49.2471         61
  49.2657         77
  49.2842         66
  49.3028         63
  49.3214         71
  49.3400         70
  49.3585         66
  49.3771         65
  49.3957         67
  49.4143         71
  49.4328         48
  49.4514         62
  49.4700         77
  49.4886         71
  49.5071         68
  49.5257         59
  49.5443         57
  49.5629         61
  49.5814         67
  49.6000         57
  49.6186         66
  49.6372         60
  49.6557         52
  49.6743         60
  49.6929         59
  49.7115         52
  49.7300         73
  49.7486         62
  49.7672         65
  49.7858         39
  49.8043         61
  49.8229         71
  49.8415         61
  49.8601         71
  49.8786         58
  49.8972         56
  49.9158         69
  49.9344         58
  49.9530         51
  49.9715         70
  49.9901         68
  50.0087         66
  50.0273         57
  50.0458         62
  50.0644         68
  50.0830         47
  50.1016         56
  50.1201         62
  50.1387         64
  50.1573         61
  50.1759         75
  50.1944         70
  50.2130         72
  50.2316         83
  50.2502         66
  50.2687         64
  50.2873         58
  50.3059         61
  50.3245         62
  50.3430         76
  50.3616         72
  50.3802         72
  50.3988         38
  50.4173         56
  50.4359         68
  50.4545         51
  50.4731         75
  50.4916         61
  50.5102         55
  50.5288         43
  50.5474         59
  50.5659         69
  50.5845         50
  50.6031         67
  50.6217         52
  50.6402         55
  50.6588         48
  50.6774         57
  50.6960         70
  50.7146         58
  50.7331         55
  50.7517         58
  50.7703         62
  50.7889         60
  50.8074         62
  50.8260         72
  50.8446         56
  50.8632         65
  50.8817         49
  50.9003         67
  50.9189         59
  50.9375         72
  50.9560         63
  50.9746         44
  50.9932         61
  51.0118         50
  51.0303         73
  51.0489         71
  51.0675         63
  51.0861         60
  51.1046         58
  51.1232         56
  51.1418         66
  51.1604         74
  51.1789         55
  51.1975         42
  51.2161         56
  51.2347         66
  51.2532         70
  51.2718         58
  51.2904         63
  51.3090         50
  51.3275         76
  51.3461         65
  51.3647         62
  51.3833         60
  51.4018         60
  51.4204         75
  51.4390         70
  51.4576         49
  51.4762         63
  51.4947         60
  51.5133         65
  51.5319         69
  51.5505         69
  51.5690         64
  51.5876         76
  51.6062         66
  51.6248         50
  51.6433         66
  51.6619         69
  51.6805         53
  51.6991         60
  51.7176         63
  51.7362         73
  51.7548         57
  51.7734         58
  51.7919         59
  51.8105         59
  51.8291         64
  51.8477         82
  51.8662         77
  51.8848         81
  51.9034         50
  51.9220         55
  51.9405         59
  51.9591         73
  51.9777         61
  51.9963         58
  52.0148         69
  52.0334         61
  52.0520         55
  52.0706         72
  52.0891         59
  52.1077         64
  52.1263         63
  52.1449         62
  52.1634         58
  52.1820         56
  52.2006         59
  52.2192         63
  52.2378         57
  52.2563         64
  52.2749         63
  52.2935         68
  52.3121         70
  52.3306         63
  52.3492         58
  52.3678         46
  52.3864         58
  52.4049         58
  52.4235         59
  52.4421         66
  52.4607         55
  52.4792         60
  52.4978         62
  52.5164         58
  52.5350         49
  52.5535         59
  52.5721         52
  52.5907         62
  52.6093         64
  52.6278         63
  52.6464         78
  52.6650         69
  52.6836         66
  52.7021         73
  52.7207         70
  52.7393         34
  52.7579         48
  52.7764         53
  52.7950         56
  52.8136         65
  52.8322         52
  52.8507         59
  52.8693         72
  52.8879         52
  52.9065         59
  52.9250         60
  52.9436         68
  52.9622         66
  52.9808         67
  52.9994         70
  53.0179         69
  53.0365         53
  53.0551         62
  53.0737         55
  53.0922         78
  53.1108         46
  53.1294         65
  53.1480         63
  53.1665         55
  53.1851         54
  53.2037         50
  53.2223         63
  53.2408         80
  53.2594         52
  53.2780         74
  53.2966         60
  53.3151         71
  53.3337         52
  53.3523         51
  53.3709         57
  53.3894         54
  53.4080         57
  53.4266         60
  53.4452         51
  53.4637         69
  53.4823         67
  53.5009         59
  53.5195         49
  53.5380         61
  53.5566         56
  53.5752         67
  53.5938         52
  53.6123         48
  53.6309         60
  53.6495         57
  53.6681         55
  53.6866         67
  53.7052         68
  53.7238         47
  53.7424         61
  53.7610         56
  53.7795         68
  53.7981         59
  53.8167         48
  53.8353         50
  53.8538         72
  53.8724         62
  53.8910         60
  53.9096         57
  53.9281         59
  53.9467         74
  53.9653         72
  53.9839         74
  54.0024         74
  54.0210         80
  54.0396         51
  54.0582         75
  54.0767         66
  54.0953         67
  54.1139         70
  54.1325         54
  54.1510         81
  54.1696         61
  54.1882         54
  54.2068         68
  54.2253         61
  54.2439         69
  54.2625         60
  54.2811         65
  54.2996         59
  54.3182         60
  54.3368         83
  54.3554         47
  54.3739         54
  54.3925         50
  54.4111         52
  54.4297         60
  54.4482         45
  54.4668         57
  54.4854         59
  54.5040         65
  54.5225         53
  54.5411         52
  54.5597         53
  54.5783         64
  54.5969         53
  54.6154         45
  54.6340         55
  54.6526         60
  54.6712         44
  54.6897         42
  54.7083         60
  54.7269         54
  54.7455         50
  54.7640         53
  54.7826         53
  54.8012         73
  54.8198         59
  54.8383         71
  54.8569         54
  54.8755         50
  54.8941         51
  54.9126         59
  54.9312         52
  54.9498         67
  54.9684         57
  54.9869         68
  55.0055         63
  55.0241         56
  55.0427         51
  55.0612         60
  55.0798         68
  55.0984         55
  55.1170         48
  55.1355         60
  55.1541         68
  55.1727         53
  55.1913         74
  55.2098         53
  55.2284         79
  55.2470         69
  55.2656         60
  55.2841         41
  55.3027         48
  55.3213         55
  55.3399         53
  55.3585         49
  55.3770         66
  55.3956         55
  55.4142         53
  55.4328         61
  55.4513         69
  55.4699         53
  55.4885         55
  55.5071         56
  55.5256         45
  55.5442         46
  55.5628         58
  55.5814         60
  55.5999         57
  55.6185         45
  55.6371         59
  55.6557         58
  55.6742         63
  55.6928         58
  55.7114         48
  55.7300         48
  55.7485         53
  55.7671         44
  55.7857         55
  55.8043         53
  55.8228         58
  55.8414         58
  55.8600         59
  55.8786         47
  55.8971         52
  55.9157         55
  55.9343         66
  55.9529         55
  55.9714         66
  55.9900         54
  56.0086         66
  56.0272         54
  56.0457         61
  56.0643         48
  56.0829         58
  56.1015         63
  56.1201         53
  56.1386         58
  56.1572         57
  56.1758         79
  56.1944         63
  56.2129         64
  56.2315         59
  56.2501         69
  56.2687         56
  56.2872         72
  56.3058         72
  56.3244         60
  56.3430         57
  56.3615         61
  56.3801         51
  56.3987         48
  56.4173         52
  56.4358         53
  56.4544         60
  56.4730         48
  56.4916         64
  56.5101         56
  56.5287         63
  56.5473         42
  56.5659         63
  56.5844         59
  56.6030         45
  56.6216         48
  56.6402         60
  56.6587         66
  56.6773         57
  56.6959         59
  56.7145         48
  56.7330         71
  56.7516         61
  56.7702         52
  56.7888         51
  56.8073         47
  56.8259         50
  56.8445         43
  56.8631         66
  56.8817         59
  56.9002         49
  56.9188         54
  56.9374         58
  56.9560         66
  56.9745         50
  56.9931         58
  57.0117         54
  57.0303         63
  57.0488         54
  57.0674         59
  57.0860         63
  57.1046         64
  57.1231         50
  57.1417         56
  57.1603         72
  57.1789         61
  57.1974         47
  57.2160         53
  57.2346         66
  57.2532         66
  57.2717         57
  57.2903         47
  57.3089         52
  57.3275         52
  57.3460         59
  57.3646         65
  57.3832         65
  57.4018         59
  57.4203         49
  57.4389         49
  57.4575         50
  57.4761         48
  57.4946         52
  57.5132         51
  57.5318         58
  57.5504         59
  57.5689         48
  57.5875         53
  57.6061         60
  57.6247         67
  57.6433         67
  57.6618         62
  57.6804         56
  57.6990         50
  57.7176         56
  57.7361         48
  57.7547         58
  57.7733         61
  57.7919         49
  57.8104         58
  57.8290         71
  57.8476         54
  57.8662         62
  57.8847         51
  57.9033         67
  57.9219         61
  57.9405         51
  57.9590         64
  57.9776         58
  57.9962         54
  58.0148         58
  58.0333         64
  58.0519         73
  58.0705         58
  58.0891         55
  58.1076         50
  58.1262         51
  58.1448         46
  58.1634         69
  58.1819         74
  58.2005         70
  58.2191         51
  58.2377         59
  58.2562         60
  58.2748         50
  58.2934         44
  58.3120         60
  58.3305         64
  58.3491         51
  58.3677         55
  58.3863         69
  58.4049         58
  58.4234         47
  58.4420         54
  58.4606         46
  58.4792         46
  58.4977         52
  58.5163         56
  58.5349         59
  58.5535         59
  58.5720         55
  58.5906         55
  58.6092         52
  58.6278         61
  58.6463         41
  58.6649         53
  58.6835         58
  58.7021         55
  58.7206         48
  58.7392         64
  58.7578         66
  58.7764         62
  58.7949         50
  58.8135         50
  58.8321         43
  58.8507         47
  58.8692         59
  58.8878         48
  58.9064         52
  58.9250         43
  58.9435         70
  58.9621         56
  58.9807         57
  58.9993         48
  59.0178         53
  59.0364         65
  59.0550         67
  59.0736         54
  59.0921         57
  59.1107         39
  59.1293         70
  59.1479         43
  59.1664         54
  59.1850         50
  59.2036         46
  59.2222         49
  59.2408         58
  59.2593         59
  59.2779         70
  59.2965         54
  59.3151         68
  59.3336         48
  59.3522         61
  59.3708         51
  59.3894         63
  59.4079         57
  59.4265         59
  59.4451         72
  59.4637         61
  59.4822         49
  59.5008         52
  59.5194         60
  59.5380         69
  59.5565         53
  59.5751         56
  59.5937         70
  59.6123         69
  59.6308         43
  59.6494         46
  59.6680         46
  59.6866         59
  59.7051         69
  59.7237         53
  59.7423         51
  59.7609         65
  59.7794         58
  59.7980         58
  59.8166         51
  59.8352         43
  59.8537         63
  59.8723         47
  59.8909         65
  59.9095         55
  59.9280         53
  59.9466         52
  59.9652         56
  59.9838         49
  60.0024         52
