;,2THETA,
5.0000,94
5.0186,96
5.0372,86
5.0557,103
5.0743,83
5.0929,90
5.1115,88
5.1300,104
5.1486,107
5.1672,90
5.1858,94
5.2043,94
5.2229,76
5.2415,110
5.2601,92
5.2786,85
5.2972,88
5.3158,87
5.3344,99
5.3529,83
5.3715,81
5.3901,77
5.4087,95
5.4272,75
5.4458,80
5.4644,74
5.4830,77
5.5015,89
5.5201,84
5.5387,81
5.5573,71
5.5758,83
5.5944,90
5.6130,86
5.6316,78
5.6501,84
5.6687,76
5.6873,54
5.7059,78
5.7244,75
5.7430,79
5.7616,69
5.7802,72
5.7988,78
5.8173,89
5.8359,71
5.8545,70
5.8731,75
5.8916,80
5.9102,79
5.9288,85
5.9474,78
5.9659,67
5.9845,78
6.0031,83
6.0217,65
6.0402,64
6.0588,65
6.0774,61
6.0960,74
6.1145,74
6.1331,73
6.1517,70
6.1703,58
6.1888,78
6.2074,88
6.2260,66
6.2446,63
6.2631,77
6.2817,65
6.3003,72
6.3189,60
6.3374,70
6.3560,64
6.3746,51
6.3932,64
6.4117,57
6.4303,72
6.4489,74
6.4675,64
6.4860,48
6.5046,76
6.5232,76
6.5418,71
6.5604,71
6.5789,58
6.5975,51
6.6161,55
6.6347,80
6.6532,60
6.6718,77
6.6904,64
6.7090,57
6.7275,54
6.7461,69
6.7647,71
6.7833,52
6.8018,72
6.8204,69
6.8390,75
6.8576,66
6.8761,48
6.8947,52
6.9133,68
6.9319,63
6.9504,60
6.9690,67
6.9876,76
7.0062,60
7.0247,62
7.0433,66
7.0619,63
7.0805,54
7.0990,65
7.1176,60
7.1362,70
7.1548,70
7.1733,58
7.1919,73
7.2105,58
7.2291,55
7.2476,56
7.2662,51
7.2848,54
7.3034,54
7.3220,64
7.3405,54
7.3591,61
7.3777,57
7.3963,70
7.4148,67
7.4334,52
7.4520,73
7.4706,61
7.4891,53
7.5077,69
7.5263,54
7.5449,70
7.5634,55
7.5820,60
7.6006,70
7.6192,61
7.6377,61
7.6563,58
7.6749,67
7.6935,68
7.7120,67
7.7306,63
7.7492,59
7.7678,55
7.7863,56
7.8049,71
7.8235,81
7.8421,62
7.8606,64
7.8792,68
7.8978,70
7.9164,63
7.9349,66
7.9535,86
7.9721,70
7.9907,60
8.0092,66
8.0278,82
8.0464,73
8.0650,70
8.0835,65
8.1021,58
8.1207,55
8.1393,81
8.1579,64
8.1764,77
8.1950,78
8.2136,79
8.2322,82
8.2507,70
8.2693,74
8.2879,67
8.3065,74
8.3250,68
8.3436,71
8.3622,77
8.3808,62
8.3993,63
8.4179,68
8.4365,74
8.4551,73
8.4736,71
8.4922,76
8.5108,71
8.5294,65
8.5479,64
8.5665,81
8.5851,80
8.6037,85
8.6222,76
8.6408,70
8.6594,82
8.6780,57
8.6965,66
8.7151,67
8.7337,58
8.7523,84
8.7708,78
8.7894,75
8.8080,73
8.8266,77
8.8451,70
8.8637,71
8.8823,76
8.9009,77
8.9195,76
8.9380,78
8.9566,74
8.9752,71
8.9938,79
9.0123,67
9.0309,73
9.0495,69
9.0681,78
9.0866,65
9.1052,82
9.1238,84
9.1424,77
9.1609,87
9.1795,71
9.1981,81
9.2167,68
9.2352,69
9.2538,76
9.2724,77
9.2910,63
9.3095,72
9.3281,89
9.3467,98
9.3653,84
9.3838,74
9.4024,79
9.4210,81
9.4396,79
9.4581,82
9.4767,73
9.4953,79
9.5139,77
9.5324,102
9.5510,83
9.5696,85
9.5882,86
9.6067,84
9.6253,77
9.6439,76
9.6625,75
9.6811,70
9.6996,105
9.7182,96
9.7368,90
9.7554,76
9.7739,96
9.7925,96
9.8111,96
9.8297,88
9.8482,85
9.8668,80
9.8854,103
9.9040,97
9.9225,84
9.9411,91
9.9597,96
9.9783,106
9.9968,94
10.0154,79
10.0340,91
10.0526,80
10.0711,79
10.0897,82
10.1083,81
10.1269,78
10.1454,88
10.1640,87
10.1826,78
10.2012,89
10.2197,87
10.2383,83
10.2569,82
10.2755,81
10.2940,87
10.3126,96
10.3312,88
10.3498,99
10.3683,97
10.3869,89
10.4055,98
10.4241,87
10.4427,83
10.4612,94
10.4798,96
10.4984,96
10.5170,92
10.5355,65
10.5541,72
10.5727,92
10.5913,94
10.6098,95
10.6284,73
10.6470,91
10.6656,93
10.6841,90
10.7027,108
10.7213,91
10.7399,74
10.7584,81
10.7770,80
10.7956,81
10.8142,90
10.8327,80
10.8513,81
10.8699,75
10.8885,89
10.9070,87
10.9256,85
10.9442,80
10.9628,87
10.9813,100
10.9999,87
11.0185,95
11.0371,79
11.0556,83
11.0742,94
11.0928,84
11.1114,86
11.1299,74
11.1485,90
11.1671,78
11.1857,88
11.2043,106
11.2228,98
11.2414,91
11.2600,90
11.2786,83
11.2971,73
11.3157,83
11.3343,103
11.3529,94
11.3714,76
11.3900,86
11.4086,87
11.4272,99
11.4457,96
11.4643,82
11.4829,83
11.5015,95
11.5200,96
11.5386,89
11.5572,97
11.5758,86
11.5943,100
11.6129,73
11.6315,87
11.6501,89
11.6686,78
11.6872,86
11.7058,90
11.7244,78
11.7429,91
11.7615,84
11.7801,87
11.7987,77
11.8172,86
11.8358,78
11.8544,83
11.8730,95
11.8915,98
11.9101,102
11.9287,82
11.9473,85
11.9659,77
11.9844,88
12.0030,77
12.0216,75
12.0402,92
12.0587,86
12.0773,79
12.0959,87
12.1145,89
12.1330,84
12.1516,80
12.1702,72
12.1888,77
12.2073,75
12.2259,90
12.2445,90
12.2631,86
12.2816,100
12.3002,89
12.3188,78
12.3374,81
12.3559,68
12.3745,91
12.3931,92
12.4117,85
12.4302,84
12.4488,81
12.4674,67
12.4860,75
12.5045,57
12.5231,72
12.5417,82
12.5603,86
12.5788,83
12.5974,89
12.6160,91
12.6346,92
12.6531,78
12.6717,90
12.6903,79
12.7089,98
12.7274,72
12.7460,75
12.7646,79
12.7832,75
12.8018,74
12.8203,85
12.8389,83
12.8575,78
12.8761,63
12.8946,75
12.9132,76
12.9318,72
12.9504,81
12.9689,71
12.9875,67
13.0061,75
13.0247,109
13.0432,70
13.0618,70
13.0804,67
13.0990,57
13.1175,87
13.1361,72
13.1547,91
13.1733,79
13.1918,81
13.2104,84
13.2290,62
13.2476,66
13.2661,73
13.2847,70
13.3033,67
13.3219,71
13.3404,72
13.3590,66
13.3776,74
13.3962,78
13.4147,67
13.4333,73
13.4519,69
13.4705,66
13.4890,76
13.5076,66
13.5262,68
13.5448,76
13.5634,72
13.5819,67
13.6005,61
13.6191,68
13.6377,67
13.6562,66
13.6748,68
13.6934,65
13.7120,50
13.7305,57
13.7491,78
13.7677,78
13.7863,69
13.8048,68
13.8234,70
13.8420,46
13.8606,63
13.8791,71
13.8977,85
13.9163,85
13.9349,75
13.9534,74
13.9720,57
13.9906,68
14.0092,71
14.0277,73
14.0463,57
14.0649,65
14.0835,62
14.1020,68
14.1206,64
14.1392,70
14.1578,59
14.1763,69
14.1949,78
14.2135,73
14.2321,65
14.2506,79
14.2692,62
14.2878,60
14.3064,66
14.3250,61
14.3435,61
14.3621,65
14.3807,77
14.3993,59
14.4178,59
14.4364,65
14.4550,73
14.4736,62
14.4921,74
14.5107,39
14.5293,52
14.5479,63
14.5664,59
14.5850,76
14.6036,69
14.6222,78
14.6407,61
14.6593,76
14.6779,57
14.6965,61
14.7150,68
14.7336,74
14.7522,53
14.7708,68
14.7893,60
14.8079,50
14.8265,53
14.8451,53
14.8636,65
14.8822,61
14.9008,61
14.9194,55
14.9379,69
14.9565,44
14.9751,56
14.9937,63
15.0122,76
15.0308,60
15.0494,68
15.0680,56
15.0866,59
15.1051,79
15.1237,50
15.1423,55
15.1609,61
15.1794,49
15.1980,62
15.2166,54
15.2352,60
15.2537,66
15.2723,64
15.2909,67
15.3095,65
15.3280,59
15.3466,55
15.3652,55
15.3838,67
15.4023,75
15.4209,82
15.4395,52
15.4581,58
15.4766,52
15.4952,66
15.5138,58
15.5324,55
15.5509,52
15.5695,62
15.5881,71
15.6067,42
15.6252,56
15.6438,53
15.6624,56
15.6810,49
15.6995,65
15.7181,71
15.7367,65
15.7553,54
15.7738,55
15.7924,54
15.8110,57
15.8296,57
15.8482,62
15.8667,79
15.8853,36
15.9039,59
15.9225,60
15.9410,58
15.9596,67
15.9782,43
15.9968,69
16.0153,71
16.0339,67
16.0525,71
16.0711,70
16.0896,56
16.1082,58
16.1268,53
16.1454,48
16.1639,72
16.1825,59
16.2011,60
16.2197,57
16.2382,65
16.2568,71
16.2754,52
16.2940,53
16.3125,59
16.3311,68
16.3497,58
16.3683,66
16.3868,53
16.4054,60
16.4240,56
16.4426,60
16.4611,51
16.4797,48
16.4983,67
16.5169,52
16.5354,61
16.5540,52
16.5726,65
16.5912,61
16.6097,67
16.6283,65
16.6469,66
16.6655,63
16.6841,64
16.7026,55
16.7212,62
16.7398,58
16.7584,57
16.7769,51
16.7955,65
16.8141,68
16.8327,71
16.8512,56
16.8698,54
16.8884,51
16.9070,51
16.9255,46
16.9441,70
16.9627,62
16.9813,60
16.9998,67
17.0184,67
17.0370,62
17.0556,51
17.0741,60
17.0927,64
17.1113,55
17.1299,62
17.1484,66
17.1670,68
17.1856,62
17.2042,49
17.2227,53
17.2413,55
17.2599,42
17.2785,40
17.2970,51
17.3156,48
17.3342,61
17.3528,72
17.3713,63
17.3899,56
17.4085,46
17.4271,60
17.4457,51
17.4642,51
17.4828,69
17.5014,55
17.5200,52
17.5385,56
17.5571,60
17.5757,56
17.5943,54
17.6128,72
17.6314,58
17.6500,44
17.6686,61
17.6871,70
17.7057,59
17.7243,79
17.7429,65
17.7614,69
17.7800,59
17.7986,62
17.8172,81
17.8357,49
17.8543,61
17.8729,54
17.8915,48
17.9100,74
17.9286,70
17.9472,68
17.9658,69
17.9843,56
18.0029,70
18.0215,57
18.0401,61
18.0586,53
18.0772,77
18.0958,72
18.1144,44
18.1329,61
18.1515,64
18.1701,88
18.1887,60
18.2073,61
18.2258,65
18.2444,50
18.2630,59
18.2816,51
18.3001,57
18.3187,57
18.3373,60
18.3559,60
18.3744,39
18.3930,65
18.4116,63
18.4302,59
18.4487,82
18.4673,64
18.4859,56
18.5045,58
18.5230,72
18.5416,57
18.5602,59
18.5788,62
18.5973,43
18.6159,61
18.6345,75
18.6531,64
18.6716,69
18.6902,69
18.7088,56
18.7274,54
18.7459,68
18.7645,54
18.7831,62
18.8017,58
18.8202,59
18.8388,53
18.8574,66
18.8760,48
18.8945,78
18.9131,59
18.9317,67
18.9503,54
18.9689,61
18.9874,47
19.0060,62
19.0246,71
19.0432,58
19.0617,65
19.0803,45
19.0989,50
19.1175,60
19.1360,63
19.1546,57
19.1732,67
19.1918,64
19.2103,67
19.2289,65
19.2475,56
19.2661,56
19.2846,66
19.3032,78
19.3218,58
19.3404,62
19.3589,58
19.3775,59
19.3961,59
19.4147,56
19.4332,56
19.4518,57
19.4704,81
19.4890,70
19.5075,65
19.5261,60
19.5447,69
19.5633,54
19.5818,61
19.6004,83
19.6190,67
19.6376,58
19.6561,61
19.6747,65
19.6933,61
19.7119,60
19.7305,58
19.7490,63
19.7676,60
19.7862,58
19.8048,59
19.8233,53
19.8419,53
19.8605,66
19.8791,58
19.8976,55
19.9162,65
19.9348,79
19.9534,75
19.9719,42
19.9905,68
20.0091,65
20.0277,77
20.0462,68
20.0648,85
20.0834,64
20.1020,67
20.1205,59
20.1391,64
20.1577,71
20.1763,63
20.1948,66
20.2134,86
20.2320,59
20.2506,82
20.2691,54
20.2877,70
20.3063,63
20.3249,67
20.3434,76
20.3620,64
20.3806,61
20.3992,75
20.4177,55
20.4363,65
20.4549,65
20.4735,75
20.4921,67
20.5106,78
20.5292,84
20.5478,62
20.5664,64
20.5849,74
20.6035,83
20.6221,71
20.6407,88
20.6592,63
20.6778,75
20.6964,69
20.7150,76
20.7335,69
20.7521,87
20.7707,76
20.7893,70
20.8078,62
20.8264,67
20.8450,58
20.8636,62
20.8821,80
20.9007,66
20.9193,75
20.9379,68
20.9564,54
20.9750,49
20.9936,64
21.0122,66
21.0307,65
21.0493,81
21.0679,66
21.0865,61
21.1050,94
21.1236,68
21.1422,83
21.1608,91
21.1793,102
21.1979,110
21.2165,117
21.2351,114
21.2537,123
21.2722,115
21.2908,112
21.3094,133
21.3280,160
21.3465,184
21.3651,205
21.3837,161
21.4023,131
21.4208,108
21.4394,96
21.4580,78
21.4766,74
21.4951,88
21.5137,78
21.5323,81
21.5509,57
21.5694,67
21.5880,81
21.6066,68
21.6252,70
21.6437,62
21.6623,73
21.6809,80
21.6995,67
21.7180,72
21.7366,81
21.7552,72
21.7738,74
21.7923,76
21.8109,73
21.8295,81
21.8481,62
21.8666,52
21.8852,79
21.9038,63
21.9224,88
21.9409,82
21.9595,57
21.9781,57
21.9967,69
22.0152,77
22.0338,71
22.0524,70
22.0710,82
22.0896,74
22.1081,81
22.1267,66
22.1453,64
22.1639,79
22.1824,74
22.2010,84
22.2196,73
22.2382,71
22.2567,77
22.2753,66
22.2939,54
22.3125,81
22.3310,70
22.3496,66
22.3682,67
22.3868,74
22.4053,85
22.4239,67
22.4425,67
22.4611,79
22.4796,76
22.4982,74
22.5168,72
22.5354,73
22.5539,66
22.5725,69
22.5911,69
22.6097,61
22.6282,78
22.6468,76
22.6654,75
22.6840,58
22.7025,75
22.7211,61
22.7397,77
22.7583,75
22.7768,81
22.7954,74
22.8140,70
22.8326,68
22.8512,72
22.8697,64
22.8883,74
22.9069,71
22.9255,72
22.9440,66
22.9626,73
22.9812,75
22.9998,76
23.0183,64
23.0369,81
23.0555,73
23.0741,61
23.0926,71
23.1112,80
23.1298,78
23.1484,89
23.1669,61
23.1855,76
23.2041,67
23.2227,75
23.2412,86
23.2598,71
23.2784,72
23.2970,89
23.3155,89
23.3341,76
23.3527,78
23.3713,68
23.3898,76
23.4084,84
23.4270,61
23.4456,70
23.4641,83
23.4827,61
23.5013,68
23.5199,83
23.5384,69
23.5570,77
23.5756,72
23.5942,82
23.6128,90
23.6313,72
23.6499,82
23.6685,78
23.6871,60
23.7056,59
23.7242,68
23.7428,65
23.7614,72
23.7799,77
23.7985,84
23.8171,76
23.8357,73
23.8542,81
23.8728,56
23.8914,77
23.9100,67
23.9285,88
23.9471,63
23.9657,76
23.9843,67
24.0028,76
24.0214,82
24.0400,81
24.0586,62
24.0771,75
24.0957,71
24.1143,77
24.1329,79
24.1514,69
24.1700,70
24.1886,74
24.2072,70
24.2257,66
24.2443,64
24.2629,83
24.2815,85
24.3000,78
24.3186,88
24.3372,108
24.3558,67
24.3744,71
24.3929,87
24.4115,79
24.4301,92
24.4487,65
24.4672,83
24.4858,68
24.5044,68
24.5230,74
24.5415,67
24.5601,62
24.5787,77
24.5973,68
24.6158,68
24.6344,77
24.6530,60
24.6716,79
24.6901,80
24.7087,78
24.7273,76
24.7459,74
24.7644,75
24.7830,65
24.8016,53
24.8202,78
24.8387,72
24.8573,67
24.8759,73
24.8945,76
24.9130,59
24.9316,76
24.9502,68
24.9688,81
24.9873,55
25.0059,79
25.0245,64
25.0431,67
25.0616,69
25.0802,60
25.0988,74
25.1174,80
25.1360,91
25.1545,72
25.1731,71
25.1917,81
25.2103,78
25.2288,73
25.2474,65
25.2660,71
25.2846,74
25.3031,90
25.3217,92
25.3403,66
25.3589,60
25.3774,69
25.3960,78
25.4146,60
25.4332,73
25.4517,71
25.4703,74
25.4889,81
25.5075,73
25.5260,75
25.5446,61
25.5632,70
25.5818,64
25.6003,74
25.6189,63
25.6375,69
25.6561,90
25.6746,79
25.6932,84
25.7118,64
25.7304,81
25.7489,88
25.7675,68
25.7861,76
25.8047,84
25.8232,81
25.8418,78
25.8604,66
25.8790,71
25.8976,69
25.9161,87
25.9347,67
25.9533,69
25.9719,74
25.9904,77
26.0090,70
26.0276,69
26.0462,77
26.0647,69
26.0833,67
26.1019,80
26.1205,76
26.1390,74
26.1576,67
26.1762,58
26.1948,73
26.2133,62
26.2319,64
26.2505,79
26.2691,64
26.2876,64
26.3062,77
26.3248,59
26.3434,69
26.3619,64
26.3805,95
26.3991,80
26.4177,83
26.4362,80
26.4548,82
26.4734,70
26.4920,68
26.5105,70
26.5291,72
26.5477,77
26.5663,60
26.5848,77
26.6034,75
26.6220,62
26.6406,88
26.6591,76
26.6777,86
26.6963,74
26.7149,72
26.7335,59
26.7520,67
26.7706,67
26.7892,58
26.8078,84
26.8263,65
26.8449,73
26.8635,65
26.8821,73
26.9006,79
26.9192,64
26.9378,71
26.9564,73
26.9749,55
26.9935,64
27.0121,70
27.0307,73
27.0492,65
27.0678,72
27.0864,79
27.1050,77
27.1235,72
27.1421,71
27.1607,95
27.1793,76
27.1978,85
27.2164,89
27.2350,78
27.2536,72
27.2721,91
27.2907,90
27.3093,76
27.3279,72
27.3464,67
27.3650,60
27.3836,76
27.4022,75
27.4207,66
27.4393,64
27.4579,66
27.4765,65
27.4951,73
27.5136,73
27.5322,60
27.5508,70
27.5694,70
27.5879,74
27.6065,68
27.6251,62
27.6437,64
27.6622,61
27.6808,65
27.6994,65
27.7180,70
27.7365,61
27.7551,63
27.7737,54
27.7923,62
27.8108,71
27.8294,68
27.8480,56
27.8666,66
27.8851,67
27.9037,79
27.9223,69
27.9409,53
27.9594,44
27.9780,62
27.9966,70
28.0152,59
28.0337,81
28.0523,65
28.0709,61
28.0895,57
28.1080,44
28.1266,71
28.1452,53
28.1638,62
28.1823,61
28.2009,58
28.2195,57
28.2381,49
28.2567,74
28.2752,61
28.2938,65
28.3124,71
28.3310,64
28.3495,58
28.3681,58
28.3867,60
28.4053,58
28.4238,76
28.4424,56
28.4610,68
28.4796,59
28.4981,63
28.5167,78
28.5353,49
28.5539,73
28.5724,70
28.5910,74
28.6096,64
28.6282,52
28.6467,58
28.6653,52
28.6839,62
28.7025,56
28.7210,56
28.7396,59
28.7582,67
28.7768,71
28.7953,70
28.8139,54
28.8325,65
28.8511,64
28.8696,72
28.8882,51
28.9068,48
28.9254,69
28.9439,81
28.9625,50
28.9811,49
28.9997,44
29.0183,66
29.0368,62
29.0554,65
29.0740,47
29.0926,64
29.1111,74
29.1297,70
29.1483,60
29.1669,71
29.1854,50
29.2040,57
29.2226,54
29.2412,62
29.2597,44
29.2783,70
29.2969,69
29.3155,68
29.3340,49
29.3526,67
29.3712,73
29.3898,64
29.4083,68
29.4269,59
29.4455,62
29.4641,61
29.4826,52
29.5012,68
29.5198,56
29.5384,51
29.5569,54
29.5755,57
29.5941,49
29.6127,45
29.6312,61
29.6498,69
29.6684,57
29.6870,76
29.7055,54
29.7241,49
29.7427,53
29.7613,59
29.7799,72
29.7984,47
29.8170,51
29.8356,58
29.8542,55
29.8727,71
29.8913,66
29.9099,57
29.9285,52
29.9470,56
29.9656,52
29.9842,61
30.0028,71
30.0213,68
30.0399,57
30.0585,70
30.0771,52
30.0956,63
30.1142,64
30.1328,58
30.1514,64
30.1699,61
30.1885,49
30.2071,56
30.2257,48
30.2442,58
30.2628,52
30.2814,59
30.3000,58
30.3185,68
30.3371,77
30.3557,85
30.3743,104
30.3928,112
30.4114,115
30.4300,80
30.4486,99
30.4671,100
30.4857,81
30.5043,75
30.5229,80
30.5415,70
30.5600,42
30.5786,53
30.5972,71
30.6158,63
30.6343,61
30.6529,50
30.6715,64
30.6901,57
30.7086,61
30.7272,54
30.7458,58
30.7644,54
30.7829,47
30.8015,56
30.8201,74
30.8387,49
30.8572,60
30.8758,53
30.8944,54
30.9130,64
30.9315,59
30.9501,43
30.9687,49
30.9873,63
31.0058,57
31.0244,48
31.0430,73
31.0616,66
31.0801,60
31.0987,54
31.1173,59
31.1359,56
31.1544,48
31.1730,52
31.1916,56
31.2102,63
31.2287,52
31.2473,45
31.2659,54
31.2845,50
31.3030,68
31.3216,51
31.3402,45
31.3588,52
31.3774,48
31.3959,57
31.4145,54
31.4331,50
31.4517,50
31.4702,51
31.4888,49
31.5074,44
31.5260,48
31.5445,45
31.5631,54
31.5817,67
31.6003,54
31.6188,47
31.6374,65
31.6560,39
31.6746,49
31.6931,51
31.7117,50
31.7303,50
31.7489,44
31.7674,36
31.7860,46
31.8046,54
31.8232,40
31.8417,39
31.8603,57
31.8789,51
31.8975,49
31.9160,55
31.9346,51
31.9532,50
31.9718,56
31.9903,55
32.0089,49
32.0275,58
32.0461,53
32.0646,52
32.0832,45
32.1018,45
32.1204,46
32.1390,49
32.1575,31
32.1761,43
32.1947,49
32.2133,45
32.2318,58
32.2504,48
32.2690,44
32.2876,53
32.3061,46
32.3247,52
32.3433,49
32.3619,49
32.3804,49
32.3990,65
32.4176,60
32.4362,58
32.4547,44
32.4733,57
32.4919,75
32.5105,58
32.5290,57
32.5476,50
32.5662,59
32.5848,52
32.6033,44
32.6219,51
32.6405,54
32.6591,43
32.6776,50
32.6962,45
32.7148,42
32.7334,44
32.7519,59
32.7705,44
32.7891,45
32.8077,30
32.8262,38
32.8448,51
32.8634,46
32.8820,37
32.9006,38
32.9191,43
32.9377,59
32.9563,52
32.9749,50
32.9934,34
33.0120,51
33.0306,37
33.0492,46
33.0677,54
33.0863,37
33.1049,45
33.1235,63
33.1420,34
33.1606,51
33.1792,51
33.1978,45
33.2163,42
33.2349,40
33.2535,50
33.2721,47
33.2906,39
33.3092,47
33.3278,43
33.3464,45
33.3649,38
33.3835,44
33.4021,44
33.4207,49
33.4392,47
33.4578,43
33.4764,48
33.4950,44
33.5135,35
33.5321,60
33.5507,51
33.5693,38
33.5878,32
33.6064,32
33.6250,44
33.6436,38
33.6622,38
33.6807,48
33.6993,47
33.7179,49
33.7365,41
33.7550,42
33.7736,42
33.7922,37
33.8108,43
33.8293,37
33.8479,44
33.8665,38
33.8851,41
33.9036,44
33.9222,54
33.9408,41
33.9594,41
33.9779,55
33.9965,38
34.0151,31
34.0337,45
34.0522,40
34.0708,36
34.0894,49
34.1080,58
34.1265,49
34.1451,42
34.1637,29
34.1823,53
34.2008,42
34.2194,38
34.2380,45
34.2566,43
34.2751,58
34.2937,57
34.3123,39
34.3309,48
34.3494,53
34.3680,41
34.3866,42
34.4052,43
34.4238,45
34.4423,51
34.4609,56
34.4795,43
34.4981,38
34.5166,41
34.5352,42
34.5538,51
34.5724,46
34.5909,51
34.6095,42
34.6281,43
34.6467,31
34.6652,49
34.6838,56
34.7024,54
34.7210,45
34.7395,53
34.7581,46
34.7767,77
34.7953,56
34.8138,53
34.8324,56
34.8510,46
34.8696,49
34.8881,38
34.9067,34
34.9253,53
34.9439,42
34.9624,41
34.9810,33
34.9996,40
35.0182,31
35.0367,46
35.0553,33
35.0739,40
35.0925,35
35.1110,48
35.1296,40
35.1482,34
35.1668,48
35.1854,32
35.2039,36
35.2225,28
35.2411,32
35.2597,38
35.2782,41
35.2968,38
35.3154,45
35.3340,43
35.3525,37
35.3711,28
35.3897,40
35.4083,28
35.4268,34
35.4454,35
35.4640,36
35.4826,45
35.5011,41
35.5197,30
35.5383,38
35.5569,37
35.5754,36
35.5940,51
35.6126,28
35.6312,43
35.6497,49
35.6683,45
35.6869,49
35.7055,43
35.7240,46
35.7426,41
35.7612,46
35.7798,38
35.7983,36
35.8169,41
35.8355,31
35.8541,41
35.8726,41
35.8912,33
35.9098,37
35.9284,39
35.9469,28
35.9655,35
35.9841,26
36.0027,35
36.0213,35
36.0398,42
36.0584,33
36.0770,34
36.0956,33
36.1141,40
36.1327,47
36.1513,32
36.1699,34
36.1884,41
36.2070,32
36.2256,41
36.2442,39
36.2627,28
36.2813,22
36.2999,30
36.3185,38
36.3370,34
36.3556,44
36.3742,36
36.3928,42
36.4113,38
36.4299,37
36.4485,42
36.4671,45
36.4856,33
36.5042,35
36.5228,38
36.5414,38
36.5599,50
36.5785,42
36.5971,34
36.6157,44
36.6342,37
36.6528,33
36.6714,32
36.6900,39
36.7085,29
36.7271,36
36.7457,37
36.7643,30
36.7829,30
36.8014,34
36.8200,29
36.8386,34
36.8572,37
36.8757,26
36.8943,27
36.9129,24
36.9315,33
36.9500,44
36.9686,35
36.9872,44
37.0058,38
37.0243,39
37.0429,30
37.0615,43
37.0801,35
37.0986,32
37.1172,34
37.1358,42
37.1544,51
37.1729,37
37.1915,34
37.2101,45
37.2287,34
37.2472,22
37.2658,35
37.2844,31
37.3030,31
37.3215,26
37.3401,39
37.3587,35
37.3773,35
37.3958,47
37.4144,54
37.4330,47
37.4516,56
37.4701,49
37.4887,38
37.5073,44
37.5259,37
37.5445,42
37.5630,38
37.5816,35
37.6002,39
37.6188,27
37.6373,23
37.6559,24
37.6745,37
37.6931,39
37.7116,32
37.7302,32
37.7488,41
37.7674,26
37.7859,27
37.8045,29
37.8231,29
37.8417,39
37.8602,35
37.8788,29
37.8974,30
37.9160,35
37.9345,41
37.9531,26
37.9717,31
37.9903,36
38.0088,26
38.0274,28
38.0460,36
38.0646,24
38.0831,26
38.1017,34
38.1203,30
38.1389,20
38.1574,34
38.1760,31
38.1946,38
38.2132,41
38.2317,30
38.2503,33
38.2689,38
38.2875,25
38.3061,28
38.3246,29
38.3432,26
38.3618,29
38.3804,40
38.3989,31
38.4175,23
38.4361,33
38.4547,30
38.4732,30
38.4918,30
38.5104,37
38.5290,36
38.5475,29
38.5661,32
38.5847,23
38.6033,37
38.6218,29
38.6404,29
38.6590,26
38.6776,29
38.6961,27
38.7147,28
38.7333,32
38.7519,32
38.7704,37
38.7890,32
38.8076,27
38.8262,31
38.8447,31
38.8633,35
38.8819,36
38.9005,32
38.9190,32
38.9376,29
38.9562,32
38.9748,42
38.9933,32
39.0119,31
39.0305,34
39.0491,36
39.0677,33
39.0862,33
39.1048,36
39.1234,35
39.1420,29
39.1605,34
39.1791,26
39.1977,38
39.2163,32
39.2348,24
39.2534,23
39.2720,29
39.2906,29
39.3091,23
39.3277,24
39.3463,34
39.3649,24
39.3834,30
39.4020,35
39.4206,33
39.4392,24
39.4577,30
39.4763,34
39.4949,21
39.5135,22
39.5320,38
39.5506,25
39.5692,36
39.5878,31
39.6063,38
39.6249,34
39.6435,33
39.6621,40
39.6806,25
39.6992,29
39.7178,30
39.7364,30
39.7549,37
39.7735,25
39.7921,19
39.8107,34
39.8293,30
39.8478,28
39.8664,23
39.8850,25
39.9036,32
39.9221,29
39.9407,36
39.9593,24
39.9779,17
39.9964,34
40.0150,28
40.0336,28
40.0522,29
40.0707,26
40.0893,33
40.1079,31
40.1265,32
40.1450,30
40.1636,26
40.1822,34
40.2008,23
40.2193,35
40.2379,32
40.2565,26
40.2751,36
40.2936,35
40.3122,30
40.3308,27
40.3494,27
40.3679,32
40.3865,31
40.4051,22
40.4237,33
40.4422,26
40.4608,30
40.4794,28
40.4980,29
40.5165,18
40.5351,27
40.5537,33
40.5723,27
40.5908,31
40.6094,36
40.6280,32
40.6466,30
40.6652,23
40.6837,20
40.7023,22
40.7209,41
40.7395,25
40.7580,40
40.7766,23
40.7952,22
40.8138,24
40.8323,28
40.8509,26
40.8695,28
40.8881,31
40.9066,37
40.9252,30
40.9438,27
40.9624,25
40.9809,29
40.9995,29
41.0181,31
41.0367,25
41.0552,27
41.0738,25
41.0924,28
41.1110,34
41.1295,26
41.1481,32
41.1667,31
41.1853,20
41.2038,29
41.2224,27
41.2410,28
41.2596,29
41.2781,27
41.2967,20
41.3153,29
41.3339,28
41.3524,28
41.3710,42
41.3896,35
41.4082,30
41.4268,26
41.4453,40
41.4639,27
41.4825,21
41.5011,27
41.5196,24
41.5382,32
41.5568,30
41.5754,26
41.5939,26
41.6125,26
41.6311,24
41.6497,21
41.6682,30
41.6868,35
41.7054,28
41.7240,31
41.7425,29
41.7611,19
41.7797,27
41.7983,31
41.8168,26
41.8354,32
41.8540,37
41.8726,33
41.8911,39
41.9097,27
41.9283,28
41.9469,25
41.9654,31
41.9840,25
42.0026,35
42.0212,25
42.0397,22
42.0583,25
42.0769,25
42.0955,26
42.1140,31
42.1326,35
42.1512,30
42.1698,32
42.1884,28
42.2069,24
42.2255,33
42.2441,26
42.2627,30
42.2812,29
42.2998,19
42.3184,30
42.3370,31
42.3555,27
42.3741,24
42.3927,34
42.4113,22
42.4298,30
42.4484,27
42.4670,22
42.4856,26
42.5041,21
42.5227,28
42.5413,27
42.5599,21
42.5784,26
42.5970,28
42.6156,24
42.6342,21
42.6527,25
42.6713,27
42.6899,21
42.7085,26
42.7270,32
42.7456,34
42.7642,21
42.7828,41
42.8013,24
42.8199,25
42.8385,38
42.8571,22
42.8756,25
42.8942,22
42.9128,23
42.9314,28
42.9500,32
42.9685,23
42.9871,28
43.0057,31
43.0243,21
43.0428,31
43.0614,21
43.0800,30
43.0986,29
43.1171,30
43.1357,32
43.1543,29
43.1729,23
43.1914,27
43.2100,32
43.2286,35
43.2472,37
43.2657,34
43.2843,28
43.3029,31
43.3215,34
43.3400,44
43.3586,32
43.3772,27
43.3958,40
43.4143,31
43.4329,24
43.4515,25
43.4701,37
43.4886,47
43.5072,55
43.5258,56
43.5444,37
43.5629,35
43.5815,34
43.6001,36
43.6187,39
43.6372,26
43.6558,34
43.6744,34
43.6930,28
43.7116,16
43.7301,24
43.7487,16
43.7673,37
43.7859,15
43.8044,28
43.8230,31
43.8416,29
43.8602,33
43.8787,29
43.8973,21
43.9159,26
43.9345,38
43.9530,33
43.9716,30
43.9902,29
44.0088,27
44.0273,25
44.0459,24
44.0645,29
44.0831,27
44.1016,27
44.1202,22
44.1388,23
44.1574,22
44.1759,20
44.1945,20
44.2131,36
44.2317,30
44.2502,32
44.2688,36
44.2874,26
44.3060,30
44.3245,20
44.3431,24
44.3617,26
44.3803,28
44.3988,14
44.4174,27
44.4360,23
44.4546,21
44.4732,27
44.4917,31
44.5103,19
44.5289,37
44.5475,24
44.5660,27
44.5846,27
44.6032,25
44.6218,31
44.6403,22
44.6589,31
44.6775,27
44.6961,27
44.7146,38
44.7332,29
44.7518,19
44.7704,33
44.7889,21
44.8075,36
44.8261,24
44.8447,32
44.8632,24
44.8818,14
44.9004,23
44.9190,20
44.9375,26
44.9561,21
44.9747,28
44.9933,31
45.0118,32
45.0304,19
45.0490,27
45.0676,18
45.0861,23
45.1047,35
45.1233,20
45.1419,19
45.1604,30
45.1790,23
45.1976,23
45.2162,21
45.2347,17
45.2533,24
45.2719,30
45.2905,21
45.3091,27
45.3276,20
45.3462,23
45.3648,24
45.3834,16
45.4019,20
45.4205,26
45.4391,26
45.4577,23
45.4762,21
45.4948,21
45.5134,23
45.5320,26
45.5505,29
45.5691,35
45.5877,21
45.6063,25
45.6248,18
45.6434,30
45.6620,25
45.6806,20
45.6991,22
45.7177,26
45.7363,30
45.7549,27
45.7734,25
45.7920,17
45.8106,23
45.8292,12
45.8477,19
45.8663,20
45.8849,30
45.9035,26
45.9220,30
45.9406,22
45.9592,21
45.9778,23
45.9963,26
46.0149,34
46.0335,36
46.0521,19
46.0707,25
46.0892,26
46.1078,24
46.1264,23
46.1450,19
46.1635,23
46.1821,24
46.2007,25
46.2193,34
46.2378,29
46.2564,26
46.2750,20
46.2936,22
46.3121,24
46.3307,19
46.3493,24
46.3679,27
46.3864,23
46.4050,25
46.4236,24
46.4422,20
46.4607,17
46.4793,25
46.4979,27
46.5165,25
46.5350,24
46.5536,27
46.5722,24
46.5908,33
46.6093,26
46.6279,35
46.6465,24
46.6651,26
46.6836,23
46.7022,38
46.7208,21
46.7394,32
46.7579,16
46.7765,19
46.7951,21
46.8137,31
46.8323,29
46.8508,18
46.8694,22
46.8880,22
46.9066,21
46.9251,37
46.9437,21
46.9623,13
46.9809,22
46.9994,21
47.0180,22
47.0366,31
47.0552,25
47.0737,23
47.0923,25
47.1109,24
47.1295,27
47.1480,22
47.1666,19
47.1852,25
47.2038,22
47.2223,22
47.2409,28
47.2595,31
47.2781,20
47.2966,21
47.3152,21
47.3338,17
47.3524,30
47.3709,23
47.3895,23
47.4081,16
47.4267,19
47.4452,18
47.4638,23
47.4824,22
47.5010,23
47.5195,19
47.5381,18
47.5567,17
47.5753,26
47.5939,34
47.6124,23
47.6310,21
47.6496,22
47.6682,29
47.6867,20
47.7053,21
47.7239,18
47.7425,24
47.7610,17
47.7796,21
47.7982,21
47.8168,25
47.8353,28
47.8539,24
47.8725,27
47.8911,21
47.9096,16
47.9282,31
47.9468,21
47.9654,21
47.9839,13
48.0025,19
48.0211,17
48.0397,28
48.0582,17
48.0768,30
48.0954,16
48.1140,25
48.1325,19
48.1511,31
48.1697,27
48.1883,20
48.2068,26
48.2254,27
48.2440,21
48.2626,24
48.2811,20
48.2997,20
48.3183,26
48.3369,21
48.3555,22
48.3740,20
48.3926,21
48.4112,33
48.4298,26
48.4483,20
48.4669,18
48.4855,15
48.5041,26
48.5226,27
48.5412,21
48.5598,18
48.5784,28
48.5969,29
48.6155,26
48.6341,18
48.6527,20
48.6712,24
48.6898,24
48.7084,22
48.7270,18
48.7455,28
48.7641,24
48.7827,19
48.8013,20
48.8198,24
48.8384,22
48.8570,19
48.8756,31
48.8941,28
48.9127,28
48.9313,45
48.9499,44
48.9684,40
48.9870,39
49.0056,25
49.0242,30
49.0427,22
49.0613,33
49.0799,40
49.0985,41
49.1171,27
49.1356,25
49.1542,28
49.1728,18
49.1914,17
49.2099,25
49.2285,25
49.2471,25
49.2657,38
49.2842,18
49.3028,19
49.3214,19
49.3400,26
49.3585,29
49.3771,24
49.3957,22
49.4143,24
49.4328,15
49.4514,21
49.4700,21
49.4886,28
49.5071,21
49.5257,17
49.5443,21
49.5629,20
49.5814,21
49.6000,26
49.6186,15
49.6372,23
49.6557,13
49.6743,24
49.6929,24
49.7115,32
49.7300,30
49.7486,26
49.7672,23
49.7858,19
49.8043,24
49.8229,15
49.8415,23
49.8601,25
49.8786,15
49.8972,24
49.9158,19
49.9344,20
49.9530,18
49.9715,20
49.9901,16
50.0087,20
50.0273,28
50.0458,27
50.0644,23
50.0830,27
50.1016,19
50.1201,25
50.1387,23
50.1573,30
50.1759,28
50.1944,30
50.2130,18
50.2316,23
50.2502,18
50.2687,26
50.2873,22
50.3059,18
50.3245,28
50.3430,25
50.3616,20
50.3802,27
50.3988,30
50.4173,22
50.4359,16
50.4545,20
50.4731,18
50.4916,22
50.5102,21
50.5288,23
50.5474,13
50.5659,18
50.5845,20
50.6031,25
50.6217,20
50.6402,23
50.6588,33
50.6774,26
50.6960,25
50.7146,12
50.7331,28
50.7517,20
50.7703,20
50.7889,21
50.8074,25
50.8260,27
50.8446,17
50.8632,16
50.8817,26
50.9003,20
50.9189,16
50.9375,33
50.9560,27
50.9746,24
50.9932,20
51.0118,21
51.0303,16
51.0489,25
51.0675,22
51.0861,16
51.1046,12
51.1232,26
51.1418,17
51.1604,23
51.1789,30
51.1975,9
51.2161,19
51.2347,18
51.2532,26
51.2718,20
51.2904,19
51.3090,16
51.3275,22
51.3461,20
51.3647,34
51.3833,20
51.4018,28
51.4204,23
51.4390,29
51.4576,27
51.4762,23
51.4947,27
51.5133,16
51.5319,31
51.5505,19
51.5690,28
51.5876,15
51.6062,21
51.6248,23
51.6433,24
51.6619,26
51.6805,25
51.6991,26
51.7176,23
51.7362,28
51.7548,33
51.7734,25
51.7919,18
51.8105,22
51.8291,26
51.8477,22
51.8662,22
51.8848,23
51.9034,27
51.9220,22
51.9405,20
51.9591,14
51.9777,25
51.9963,32
52.0148,21
52.0334,22
52.0520,32
52.0706,25
52.0891,21
52.1077,31
52.1263,18
52.1449,23
52.1634,16
52.1820,24
52.2006,12
52.2192,24
52.2378,12
52.2563,23
52.2749,16
52.2935,29
52.3121,20
52.3306,20
52.3492,28
52.3678,21
52.3864,29
52.4049,29
52.4235,26
52.4421,21
52.4607,22
52.4792,21
52.4978,16
52.5164,15
52.5350,25
52.5535,13
52.5721,23
52.5907,28
52.6093,28
52.6278,16
52.6464,16
52.6650,17
52.6836,24
52.7021,16
52.7207,26
52.7393,28
52.7579,26
52.7764,20
52.7950,18
52.8136,20
52.8322,27
52.8507,23
52.8693,21
52.8879,14
52.9065,22
52.9250,26
52.9436,25
52.9622,23
52.9808,18
52.9994,26
53.0179,34
53.0365,22
53.0551,16
53.0737,24
53.0922,20
53.1108,23
53.1294,22
53.1480,31
53.1665,15
53.1851,28
53.2037,21
53.2223,22
53.2408,27
53.2594,14
53.2780,15
53.2966,20
53.3151,20
53.3337,17
53.3523,23
53.3709,22
53.3894,15
53.4080,17
53.4266,17
53.4452,22
53.4637,27
53.4823,22
53.5009,27
53.5195,18
53.5380,32
53.5566,19
53.5752,12
53.5938,19
53.6123,17
53.6309,29
53.6495,21
53.6681,25
53.6866,25
53.7052,22
53.7238,26
53.7424,11
53.7610,17
53.7795,26
53.7981,20
53.8167,24
53.8353,27
53.8538,28
53.8724,23
53.8910,27
53.9096,19
53.9281,28
53.9467,21
53.9653,24
53.9839,20
54.0024,29
54.0210,18
54.0396,29
54.0582,17
54.0767,10
54.0953,25
54.1139,19
54.1325,20
54.1510,26
54.1696,28
54.1882,25
54.2068,16
54.2253,19
54.2439,18
54.2625,25
54.2811,18
54.2996,23
54.3182,24
54.3368,21
54.3554,19
54.3739,26
54.3925,27
54.4111,26
54.4297,14
54.4482,17
54.4668,29
54.4854,21
54.5040,16
54.5225,19
54.5411,32
54.5597,22
54.5783,28
54.5969,24
54.6154,21
54.6340,27
54.6526,28
54.6712,22
54.6897,19
54.7083,23
54.7269,21
54.7455,22
54.7640,17
54.7826,19
54.8012,27
54.8198,21
54.8383,16
54.8569,22
54.8755,14
54.8941,25
54.9126,17
54.9312,21
54.9498,28
54.9684,23
54.9869,20
55.0055,24
55.0241,15
55.0427,29
55.0612,21
55.0798,17
55.0984,25
55.1170,28
55.1355,22
55.1541,16
55.1727,21
55.1913,21
55.2098,15
55.2284,22
55.2470,17
55.2656,19
55.2841,29
55.3027,25
55.3213,23
55.3399,23
55.3585,23
55.3770,18
55.3956,21
55.4142,17
55.4328,27
55.4513,28
55.4699,20
55.4885,22
55.5071,22
55.5256,27
55.5442,26
55.5628,17
55.5814,21
55.5999,25
55.6185,19
55.6371,31
55.6557,17
55.6742,18
55.6928,25
55.7114,20
55.7300,14
55.7485,21
55.7671,19
55.7857,22
55.8043,17
55.8228,18
55.8414,21
55.8600,31
55.8786,30
55.8971,23
55.9157,26
55.9343,16
55.9529,19
55.9714,18
55.9900,19
56.0086,21
56.0272,17
56.0457,20
56.0643,27
56.0829,16
56.1015,23
56.1201,30
56.1386,23
56.1572,25
56.1758,28
56.1944,24
56.2129,22
56.2315,36
56.2501,16
56.2687,36
56.2872,22
56.3058,33
56.3244,24
56.3430,22
56.3615,17
56.3801,29
56.3987,20
56.4173,19
56.4358,23
56.4544,13
56.4730,20
56.4916,12
56.5101,16
56.5287,26
56.5473,21
56.5659,15
56.5844,17
56.6030,22
56.6216,15
56.6402,23
56.6587,20
56.6773,24
56.6959,16
56.7145,20
56.7330,16
56.7516,16
56.7702,16
56.7888,13
56.8073,21
56.8259,20
56.8445,16
56.8631,21
56.8817,20
56.9002,23
56.9188,21
56.9374,17
56.9560,23
56.9745,19
56.9931,21
57.0117,19
57.0303,21
57.0488,20
57.0674,18
57.0860,14
57.1046,24
57.1231,22
57.1417,10
57.1603,20
57.1789,14
57.1974,22
57.2160,25
57.2346,17
57.2532,21
57.2717,9
57.2903,24
57.3089,16
57.3275,23
57.3460,25
57.3646,26
57.3832,36
57.4018,20
57.4203,24
57.4389,20
57.4575,19
57.4761,23
57.4946,14
57.5132,26
57.5318,21
57.5504,19
57.5689,16
57.5875,23
57.6061,23
57.6247,19
57.6433,25
57.6618,28
57.6804,24
57.6990,21
57.7176,16
57.7361,18
57.7547,23
57.7733,16
57.7919,24
57.8104,16
57.8290,25
57.8476,23
57.8662,19
57.8847,23
57.9033,25
57.9219,28
57.9405,22
57.9590,18
57.9776,17
57.9962,22
58.0148,21
58.0333,22
58.0519,24
58.0705,22
58.0891,21
58.1076,14
58.1262,10
58.1448,25
58.1634,14
58.1819,19
58.2005,21
58.2191,24
58.2377,25
58.2562,14
58.2748,17
58.2934,19
58.3120,19
58.3305,18
58.3491,23
58.3677,14
58.3863,30
58.4049,22
58.4234,16
58.4420,17
58.4606,23
58.4792,17
58.4977,20
58.5163,18
58.5349,26
58.5535,19
58.5720,20
58.5906,29
58.6092,20
58.6278,21
58.6463,19
58.6649,17
58.6835,15
58.7021,23
58.7206,25
58.7392,24
58.7578,30
58.7764,21
58.7949,13
58.8135,22
58.8321,24
58.8507,14
58.8692,18
58.8878,18
58.9064,12
58.9250,18
58.9435,23
58.9621,14
58.9807,21
58.9993,20
59.0178,13
59.0364,16
59.0550,23
59.0736,20
59.0921,22
59.1107,19
59.1293,19
59.1479,23
59.1664,19
59.1850,19
59.2036,18
59.2222,19
59.2408,20
59.2593,24
59.2779,20
59.2965,23
59.3151,14
59.3336,20
59.3522,16
59.3708,20
59.3894,24
59.4079,21
59.4265,25
59.4451,18
59.4637,27
59.4822,22
59.5008,24
59.5194,24
59.5380,15
59.5565,31
59.5751,14
59.5937,24
59.6123,22
59.6308,15
59.6494,19
59.6680,19
59.6866,19
59.7051,15
59.7237,15
59.7423,25
59.7609,18
59.7794,19
59.7980,14
59.8166,15
59.8352,20
59.8537,20
59.8723,18
59.8909,31
59.9095,20
59.9280,20
59.9466,20
59.9652,19
59.9838,20
60.0024,24
