; (content of file Y:\Sam\Apurva-07-20-2022\puck4\ML_20220718_50_SJD_4_LaB6-4min.raw)
_FILEVERSION = 3
_SAMPLE = ML_20220718_50_SJD_4_LaB6-4min
_+SAMPLE = 
_SITE = USA
_USER = Administrator
_GONIOMETER_CODE = 20
; Goniometer : D8 theta/2theta, stage : Unknown
_ATTACHMENTS_CODE = 0
_GONIOMETER_RADIUS = 200.5
_FIXED_DIVSLIT = 0.6
_FIXED_SAMPLESLIT = 0
_SOLLER_SLITS = 2
_FIXED_DETSLIT = 9.55
_MONOCHROMATOR = 0
; Incident beam monochromator : None
_SOLLER_SLITS_2 = N
_THIN_FILM = N
_BETA_FILTER = Y
_FIXED_ANTISLIT = 5.89
_ANALYZER_CODE = 0
; Received beam analyzer : None
_DATEMEASURED = "26-Jul-2022 14:00:47"
_WL_UNIT = A
_WL1 = 1.5406
_WL2 = 1.54439
_WL3 = 1.39222
_WLRATIO = 0.5
_ANODE = Cu
_V4_INF_CREATOR = XRDWizard
_V4_INF_CREATOR_VERSION = V2.9.0.22
_V4_INF_WIZARD_VERSION = V2.9.0.22
_V4_INF_WIZARD_ADDINS = V2.9.0.22
_V4_INF_WIZARD_DOCTYPE = XRD
_V4_INF_OSUSER = McQueenLab
_V4_INF_USER = Administrator
_V4_INF_SITE = USA
_V4_INF_SAMPLEID = ML_20220718_50_SJD_4_LaB6-4min

; Data for range 1
_DRIVE = COUPLED
_STEPTIME = 11.28
_STEPSIZE = 0.0185756
_STEPMODE = C
_START = 5
_THETA = 2.5
_2THETA = 5
_KHI = 0
_PHI = 0
_X = 0
_Y = 0
_Z = 0
_DETECTOR = 5
; Detector type : Unknown
_DETECTORSLIT = unkn
_AUX1 = 0
_AUX2 = 0
_AUX3 = 0
_TIMESTARTED = 15
_TEMP_RATE = -1
_TEMP_DELAY = -1
_KV = 40
_MA = 40
_RANGE_WL = 1.5406
_3DPLANE = 0
_V4_ADDITIONALDETECTOR = 257
_V4_PSD2THETA = 3.3663
_V4_PSDCHANNEL1 = 0
_V4_PSDAPERTURE = 12.68
_V4_PSDTYPE = 5
_V4_PSDFIXED = 0
_V4_COUNTERS_MASK = 4096
_V4_DRIVES_MASK = 0
_V4_ENCODERS_MASK = 0
_2THETACOUNTS = 1
; 2THETA  PSD
   5.0000        248
   5.0186        258
   5.0372        294
   5.0557        274
   5.0743        253
   5.0929        242
   5.1115        250
   5.1300        230
   5.1486        230
   5.1672        204
   5.1858        226
   5.2043        246
   5.2229        222
   5.2415        236
   5.2601        258
   5.2786        223
   5.2972        226
   5.3158        249
   5.3344        241
   5.3529        219
   5.3715        236
   5.3901        216
   5.4087        217
   5.4272        256
   5.4458        222
   5.4644        208
   5.4830        214
   5.5015        223
   5.5201        224
   5.5387        237
   5.5573        210
   5.5758        215
   5.5944        221
   5.6130        195
   5.6316        205
   5.6501        219
   5.6687        218
   5.6873        228
   5.7059        193
   5.7244        224
   5.7430        215
   5.7616        188
   5.7802        207
   5.7988        211
   5.8173        206
   5.8359        213
   5.8545        188
   5.8731        203
   5.8916        222
   5.9102        213
   5.9288        193
   5.9474        201
   5.9659        205
   5.9845        189
   6.0031        160
   6.0217        199
   6.0402        205
   6.0588        213
   6.0774        199
   6.0960        206
   6.1145        191
   6.1331        191
   6.1517        161
   6.1703        192
   6.1888        181
   6.2074        189
   6.2260        167
   6.2446        207
   6.2631        211
   6.2817        169
   6.3003        182
   6.3189        185
   6.3374        180
   6.3560        188
   6.3746        193
   6.3932        180
   6.4117        194
   6.4303        171
   6.4489        175
   6.4675        183
   6.4860        174
   6.5046        185
   6.5232        196
   6.5418        188
   6.5604        178
   6.5789        196
   6.5975        189
   6.6161        171
   6.6347        178
   6.6532        177
   6.6718        153
   6.6904        193
   6.7090        164
   6.7275        183
   6.7461        163
   6.7647        139
   6.7833        162
   6.8018        197
   6.8204        170
   6.8390        167
   6.8576        173
   6.8761        155
   6.8947        159
   6.9133        187
   6.9319        176
   6.9504        156
   6.9690        178
   6.9876        163
   7.0062        158
   7.0247        166
   7.0433        186
   7.0619        158
   7.0805        163
   7.0990        150
   7.1176        166
   7.1362        149
   7.1548        147
   7.1733        146
   7.1919        185
   7.2105        157
   7.2291        164
   7.2476        180
   7.2662        147
   7.2848        181
   7.3034        142
   7.3220        166
   7.3405        164
   7.3591        155
   7.3777        158
   7.3963        165
   7.4148        172
   7.4334        145
   7.4520        169
   7.4706        191
   7.4891        164
   7.5077        153
   7.5263        158
   7.5449        164
   7.5634        151
   7.5820        156
   7.6006        174
   7.6192        171
   7.6377        159
   7.6563        180
   7.6749        195
   7.6935        168
   7.7120        172
   7.7306        171
   7.7492        180
   7.7678        192
   7.7863        190
   7.8049        197
   7.8235        189
   7.8421        157
   7.8606        174
   7.8792        192
   7.8978        192
   7.9164        169
   7.9349        177
   7.9535        163
   7.9721        203
   7.9907        185
   8.0092        167
   8.0278        189
   8.0464        173
   8.0650        184
   8.0835        205
   8.1021        197
   8.1207        174
   8.1393        174
   8.1579        195
   8.1764        193
   8.1950        222
   8.2136        166
   8.2322        209
   8.2507        191
   8.2693        193
   8.2879        189
   8.3065        193
   8.3250        176
   8.3436        187
   8.3622        214
   8.3808        199
   8.3993        186
   8.4179        211
   8.4365        176
   8.4551        198
   8.4736        204
   8.4922        215
   8.5108        192
   8.5294        195
   8.5479        189
   8.5665        194
   8.5851        191
   8.6037        208
   8.6222        196
   8.6408        182
   8.6594        232
   8.6780        197
   8.6965        186
   8.7151        199
   8.7337        198
   8.7523        207
   8.7708        183
   8.7894        236
   8.8080        208
   8.8266        204
   8.8451        196
   8.8637        220
   8.8823        194
   8.9009        204
   8.9195        176
   8.9380        219
   8.9566        218
   8.9752        217
   8.9938        213
   9.0123        196
   9.0309        222
   9.0495        214
   9.0681        194
   9.0866        222
   9.1052        204
   9.1238        249
   9.1424        216
   9.1609        227
   9.1795        230
   9.1981        235
   9.2167        234
   9.2352        198
   9.2538        233
   9.2724        222
   9.2910        214
   9.3095        228
   9.3281        198
   9.3467        215
   9.3653        199
   9.3838        240
   9.4024        210
   9.4210        216
   9.4396        210
   9.4581        232
   9.4767        224
   9.4953        218
   9.5139        223
   9.5324        244
   9.5510        224
   9.5696        233
   9.5882        208
   9.6067        203
   9.6253        234
   9.6439        239
   9.6625        245
   9.6811        209
   9.6996        243
   9.7182        234
   9.7368        222
   9.7554        225
   9.7739        242
   9.7925        235
   9.8111        233
   9.8297        243
   9.8482        236
   9.8668        255
   9.8854        247
   9.9040        217
   9.9225        242
   9.9411        259
   9.9597        223
   9.9783        235
   9.9968        259
  10.0154        233
  10.0340        251
  10.0526        248
  10.0711        251
  10.0897        271
  10.1083        240
  10.1269        244
  10.1454        269
  10.1640        259
  10.1826        250
  10.2012        213
  10.2197        247
  10.2383        249
  10.2569        267
  10.2755        237
  10.2940        226
  10.3126        249
  10.3312        263
  10.3498        206
  10.3683        231
  10.3869        215
  10.4055        222
  10.4241        220
  10.4427        265
  10.4612        294
  10.4798        243
  10.4984        246
  10.5170        233
  10.5355        253
  10.5541        235
  10.5727        202
  10.5913        265
  10.6098        239
  10.6284        226
  10.6470        258
  10.6656        226
  10.6841        218
  10.7027        236
  10.7213        243
  10.7399        240
  10.7584        251
  10.7770        269
  10.7956        271
  10.8142        261
  10.8327        241
  10.8513        230
  10.8699        246
  10.8885        208
  10.9070        253
  10.9256        246
  10.9442        246
  10.9628        242
  10.9813        254
  10.9999        208
  11.0185        232
  11.0371        257
  11.0556        219
  11.0742        227
  11.0928        235
  11.1114        240
  11.1299        262
  11.1485        235
  11.1671        240
  11.1857        231
  11.2043        232
  11.2228        245
  11.2414        224
  11.2600        252
  11.2786        257
  11.2971        227
  11.3157        225
  11.3343        243
  11.3529        240
  11.3714        252
  11.3900        222
  11.4086        235
  11.4272        232
  11.4457        237
  11.4643        238
  11.4829        232
  11.5015        224
  11.5200        214
  11.5386        249
  11.5572        234
  11.5758        256
  11.5943        233
  11.6129        246
  11.6315        251
  11.6501        226
  11.6686        242
  11.6872        213
  11.7058        231
  11.7244        250
  11.7429        235
  11.7615        217
  11.7801        224
  11.7987        208
  11.8172        244
  11.8358        258
  11.8544        202
  11.8730        231
  11.8915        228
  11.9101        243
  11.9287        249
  11.9473        201
  11.9659        245
  11.9844        227
  12.0030        223
  12.0216        214
  12.0402        200
  12.0587        234
  12.0773        239
  12.0959        241
  12.1145        211
  12.1330        220
  12.1516        224
  12.1702        211
  12.1888        209
  12.2073        227
  12.2259        197
  12.2445        210
  12.2631        215
  12.2816        240
  12.3002        227
  12.3188        235
  12.3374        200
  12.3559        230
  12.3745        238
  12.3931        237
  12.4117        185
  12.4302        232
  12.4488        229
  12.4674        208
  12.4860        244
  12.5045        242
  12.5231        201
  12.5417        237
  12.5603        227
  12.5788        214
  12.5974        209
  12.6160        228
  12.6346        214
  12.6531        216
  12.6717        233
  12.6903        230
  12.7089        226
  12.7274        200
  12.7460        230
  12.7646        206
  12.7832        204
  12.8018        228
  12.8203        203
  12.8389        218
  12.8575        197
  12.8761        217
  12.8946        188
  12.9132        230
  12.9318        203
  12.9504        215
  12.9689        213
  12.9875        212
  13.0061        206
  13.0247        203
  13.0432        207
  13.0618        193
  13.0804        205
  13.0990        205
  13.1175        189
  13.1361        178
  13.1547        212
  13.1733        199
  13.1918        215
  13.2104        223
  13.2290        208
  13.2476        178
  13.2661        181
  13.2847        215
  13.3033        191
  13.3219        199
  13.3404        201
  13.3590        181
  13.3776        211
  13.3962        197
  13.4147        202
  13.4333        185
  13.4519        200
  13.4705        173
  13.4890        207
  13.5076        199
  13.5262        183
  13.5448        191
  13.5634        188
  13.5819        192
  13.6005        187
  13.6191        201
  13.6377        200
  13.6562        179
  13.6748        180
  13.6934        166
  13.7120        182
  13.7305        182
  13.7491        195
  13.7677        194
  13.7863        205
  13.8048        192
  13.8234        197
  13.8420        190
  13.8606        191
  13.8791        175
  13.8977        176
  13.9163        166
  13.9349        186
  13.9534        162
  13.9720        205
  13.9906        171
  14.0092        174
  14.0277        174
  14.0463        183
  14.0649        186
  14.0835        175
  14.1020        167
  14.1206        186
  14.1392        176
  14.1578        183
  14.1763        179
  14.1949        185
  14.2135        186
  14.2321        178
  14.2506        177
  14.2692        173
  14.2878        191
  14.3064        186
  14.3250        161
  14.3435        190
  14.3621        196
  14.3807        178
  14.3993        188
  14.4178        161
  14.4364        155
  14.4550        174
  14.4736        188
  14.4921        205
  14.5107        150
  14.5293        157
  14.5479        190
  14.5664        164
  14.5850        182
  14.6036        171
  14.6222        158
  14.6407        161
  14.6593        179
  14.6779        177
  14.6965        149
  14.7150        159
  14.7336        176
  14.7522        170
  14.7708        177
  14.7893        163
  14.8079        146
  14.8265        170
  14.8451        167
  14.8636        151
  14.8822        190
  14.9008        155
  14.9194        170
  14.9379        177
  14.9565        161
  14.9751        152
  14.9937        186
  15.0122        176
  15.0308        173
  15.0494        172
  15.0680        155
  15.0866        165
  15.1051        165
  15.1237        164
  15.1423        155
  15.1609        161
  15.1794        199
  15.1980        143
  15.2166        169
  15.2352        170
  15.2537        143
  15.2723        161
  15.2909        170
  15.3095        167
  15.3280        177
  15.3466        170
  15.3652        174
  15.3838        159
  15.4023        183
  15.4209        162
  15.4395        202
  15.4581        142
  15.4766        175
  15.4952        163
  15.5138        154
  15.5324        171
  15.5509        165
  15.5695        165
  15.5881        167
  15.6067        152
  15.6252        170
  15.6438        178
  15.6624        150
  15.6810        145
  15.6995        158
  15.7181        178
  15.7367        172
  15.7553        167
  15.7738        176
  15.7924        173
  15.8110        145
  15.8296        156
  15.8482        164
  15.8667        157
  15.8853        147
  15.9039        149
  15.9225        152
  15.9410        185
  15.9596        176
  15.9782        195
  15.9968        165
  16.0153        170
  16.0339        174
  16.0525        158
  16.0711        203
  16.0896        151
  16.1082        167
  16.1268        176
  16.1454        162
  16.1639        177
  16.1825        161
  16.2011        169
  16.2197        179
  16.2382        163
  16.2568        157
  16.2754        147
  16.2940        167
  16.3125        134
  16.3311        153
  16.3497        151
  16.3683        171
  16.3868        162
  16.4054        177
  16.4240        162
  16.4426        147
  16.4611        163
  16.4797        147
  16.4983        145
  16.5169        155
  16.5354        168
  16.5540        150
  16.5726        158
  16.5912        161
  16.6097        161
  16.6283        168
  16.6469        174
  16.6655        150
  16.6841        162
  16.7026        162
  16.7212        177
  16.7398        174
  16.7584        173
  16.7769        144
  16.7955        158
  16.8141        153
  16.8327        152
  16.8512        160
  16.8698        147
  16.8884        162
  16.9070        158
  16.9255        166
  16.9441        161
  16.9627        158
  16.9813        166
  16.9998        165
  17.0184        152
  17.0370        144
  17.0556        176
  17.0741        176
  17.0927        167
  17.1113        145
  17.1299        181
  17.1484        151
  17.1670        178
  17.1856        194
  17.2042        151
  17.2227        162
  17.2413        179
  17.2599        176
  17.2785        158
  17.2970        148
  17.3156        158
  17.3342        172
  17.3528        170
  17.3713        136
  17.3899        143
  17.4085        168
  17.4271        159
  17.4457        159
  17.4642        153
  17.4828        139
  17.5014        179
  17.5200        156
  17.5385        153
  17.5571        157
  17.5757        155
  17.5943        169
  17.6128        146
  17.6314        159
  17.6500        135
  17.6686        143
  17.6871        168
  17.7057        163
  17.7243        167
  17.7429        165
  17.7614        164
  17.7800        178
  17.7986        162
  17.8172        154
  17.8357        178
  17.8543        162
  17.8729        169
  17.8915        165
  17.9100        160
  17.9286        156
  17.9472        147
  17.9658        151
  17.9843        179
  18.0029        181
  18.0215        174
  18.0401        157
  18.0586        174
  18.0772        173
  18.0958        161
  18.1144        158
  18.1329        179
  18.1515        168
  18.1701        177
  18.1887        169
  18.2073        151
  18.2258        152
  18.2444        142
  18.2630        180
  18.2816        173
  18.3001        176
  18.3187        162
  18.3373        145
  18.3559        154
  18.3744        171
  18.3930        182
  18.4116        160
  18.4302        151
  18.4487        165
  18.4673        147
  18.4859        165
  18.5045        176
  18.5230        155
  18.5416        161
  18.5602        185
  18.5788        149
  18.5973        176
  18.6159        172
  18.6345        143
  18.6531        169
  18.6716        154
  18.6902        167
  18.7088        164
  18.7274        180
  18.7459        173
  18.7645        167
  18.7831        163
  18.8017        151
  18.8202        175
  18.8388        136
  18.8574        148
  18.8760        193
  18.8945        149
  18.9131        180
  18.9317        166
  18.9503        163
  18.9689        187
  18.9874        179
  19.0060        171
  19.0246        172
  19.0432        177
  19.0617        183
  19.0803        150
  19.0989        187
  19.1175        175
  19.1360        173
  19.1546        173
  19.1732        197
  19.1918        165
  19.2103        159
  19.2289        180
  19.2475        161
  19.2661        173
  19.2846        169
  19.3032        176
  19.3218        184
  19.3404        162
  19.3589        167
  19.3775        171
  19.3961        167
  19.4147        164
  19.4332        168
  19.4518        170
  19.4704        162
  19.4890        178
  19.5075        166
  19.5261        183
  19.5447        157
  19.5633        160
  19.5818        158
  19.6004        179
  19.6190        173
  19.6376        151
  19.6561        150
  19.6747        195
  19.6933        176
  19.7119        165
  19.7305        183
  19.7490        171
  19.7676        180
  19.7862        186
  19.8048        174
  19.8233        184
  19.8419        158
  19.8605        193
  19.8791        155
  19.8976        180
  19.9162        182
  19.9348        196
  19.9534        169
  19.9719        183
  19.9905        196
  20.0091        191
  20.0277        182
  20.0462        168
  20.0648        163
  20.0834        175
  20.1020        171
  20.1205        184
  20.1391        161
  20.1577        167
  20.1763        175
  20.1948        162
  20.2134        159
  20.2320        184
  20.2506        175
  20.2691        155
  20.2877        189
  20.3063        179
  20.3249        175
  20.3434        194
  20.3620        173
  20.3806        212
  20.3992        182
  20.4177        177
  20.4363        187
  20.4549        169
  20.4735        164
  20.4921        159
  20.5106        201
  20.5292        182
  20.5478        185
  20.5664        179
  20.5849        187
  20.6035        179
  20.6221        202
  20.6407        207
  20.6592        212
  20.6778        174
  20.6964        188
  20.7150        192
  20.7335        172
  20.7521        211
  20.7707        181
  20.7893        181
  20.8078        174
  20.8264        183
  20.8450        168
  20.8636        155
  20.8821        194
  20.9007        202
  20.9193        196
  20.9379        193
  20.9564        216
  20.9750        191
  20.9936        170
  21.0122        199
  21.0307        208
  21.0493        200
  21.0679        184
  21.0865        177
  21.1050        198
  21.1236        197
  21.1422        224
  21.1608        213
  21.1793        239
  21.1979        277
  21.2165        328
  21.2351        323
  21.2537        315
  21.2722        310
  21.2908        330
  21.3094        320
  21.3280        353
  21.3465        474
  21.3651        538
  21.3837        444
  21.4023        404
  21.4208        347
  21.4394        273
  21.4580        242
  21.4766        227
  21.4951        229
  21.5137        202
  21.5323        196
  21.5509        197
  21.5694        193
  21.5880        206
  21.6066        201
  21.6252        194
  21.6437        206
  21.6623        208
  21.6809        185
  21.6995        186
  21.7180        214
  21.7366        193
  21.7552        191
  21.7738        219
  21.7923        202
  21.8109        200
  21.8295        214
  21.8481        188
  21.8666        201
  21.8852        204
  21.9038        185
  21.9224        165
  21.9409        183
  21.9595        197
  21.9781        214
  21.9967        188
  22.0152        176
  22.0338        191
  22.0524        222
  22.0710        170
  22.0896        194
  22.1081        177
  22.1267        186
  22.1453        180
  22.1639        187
  22.1824        209
  22.2010        183
  22.2196        207
  22.2382        208
  22.2567        207
  22.2753        201
  22.2939        189
  22.3125        188
  22.3310        186
  22.3496        215
  22.3682        199
  22.3868        208
  22.4053        189
  22.4239        202
  22.4425        186
  22.4611        196
  22.4796        194
  22.4982        206
  22.5168        199
  22.5354        207
  22.5539        210
  22.5725        205
  22.5911        186
  22.6097        208
  22.6282        213
  22.6468        180
  22.6654        185
  22.6840        182
  22.7025        209
  22.7211        212
  22.7397        213
  22.7583        206
  22.7768        193
  22.7954        212
  22.8140        192
  22.8326        222
  22.8512        208
  22.8697        174
  22.8883        185
  22.9069        200
  22.9255        209
  22.9440        201
  22.9626        226
  22.9812        202
  22.9998        174
  23.0183        183
  23.0369        173
  23.0555        205
  23.0741        203
  23.0926        200
  23.1112        227
  23.1298        190
  23.1484        165
  23.1669        195
  23.1855        200
  23.2041        183
  23.2227        200
  23.2412        181
  23.2598        212
  23.2784        199
  23.2970        206
  23.3155        210
  23.3341        176
  23.3527        195
  23.3713        224
  23.3898        211
  23.4084        190
  23.4270        213
  23.4456        192
  23.4641        213
  23.4827        210
  23.5013        195
  23.5199        187
  23.5384        204
  23.5570        199
  23.5756        210
  23.5942        187
  23.6128        207
  23.6313        177
  23.6499        204
  23.6685        196
  23.6871        213
  23.7056        201
  23.7242        196
  23.7428        199
  23.7614        207
  23.7799        203
  23.7985        181
  23.8171        187
  23.8357        189
  23.8542        188
  23.8728        190
  23.8914        179
  23.9100        198
  23.9285        209
  23.9471        229
  23.9657        197
  23.9843        189
  24.0028        191
  24.0214        203
  24.0400        191
  24.0586        200
  24.0771        202
  24.0957        196
  24.1143        221
  24.1329        200
  24.1514        197
  24.1700        203
  24.1886        196
  24.2072        211
  24.2257        245
  24.2443        218
  24.2629        235
  24.2815        239
  24.3000        233
  24.3186        257
  24.3372        235
  24.3558        233
  24.3744        242
  24.3929        197
  24.4115        214
  24.4301        191
  24.4487        222
  24.4672        223
  24.4858        206
  24.5044        186
  24.5230        200
  24.5415        202
  24.5601        214
  24.5787        184
  24.5973        225
  24.6158        202
  24.6344        172
  24.6530        223
  24.6716        188
  24.6901        170
  24.7087        220
  24.7273        190
  24.7459        199
  24.7644        204
  24.7830        164
  24.8016        187
  24.8202        208
  24.8387        181
  24.8573        198
  24.8759        206
  24.8945        200
  24.9130        204
  24.9316        203
  24.9502        206
  24.9688        171
  24.9873        207
  25.0059        188
  25.0245        198
  25.0431        224
  25.0616        214
  25.0802        227
  25.0988        191
  25.1174        180
  25.1360        196
  25.1545        208
  25.1731        213
  25.1917        206
  25.2103        200
  25.2288        196
  25.2474        190
  25.2660        198
  25.2846        200
  25.3031        193
  25.3217        222
  25.3403        188
  25.3589        195
  25.3774        203
  25.3960        204
  25.4146        200
  25.4332        191
  25.4517        227
  25.4703        200
  25.4889        192
  25.5075        173
  25.5260        193
  25.5446        195
  25.5632        197
  25.5818        172
  25.6003        193
  25.6189        179
  25.6375        214
  25.6561        199
  25.6746        178
  25.6932        219
  25.7118        210
  25.7304        195
  25.7489        196
  25.7675        193
  25.7861        189
  25.8047        216
  25.8232        176
  25.8418        189
  25.8604        178
  25.8790        200
  25.8976        220
  25.9161        199
  25.9347        198
  25.9533        176
  25.9719        190
  25.9904        176
  26.0090        193
  26.0276        208
  26.0462        176
  26.0647        195
  26.0833        193
  26.1019        183
  26.1205        207
  26.1390        161
  26.1576        193
  26.1762        171
  26.1948        191
  26.2133        183
  26.2319        178
  26.2505        176
  26.2691        205
  26.2876        193
  26.3062        169
  26.3248        187
  26.3434        176
  26.3619        180
  26.3805        201
  26.3991        187
  26.4177        167
  26.4362        175
  26.4548        202
  26.4734        221
  26.4920        187
  26.5105        195
  26.5291        193
  26.5477        197
  26.5663        174
  26.5848        189
  26.6034        188
  26.6220        182
  26.6406        191
  26.6591        200
  26.6777        173
  26.6963        185
  26.7149        175
  26.7335        170
  26.7520        180
  26.7706        186
  26.7892        197
  26.8078        177
  26.8263        166
  26.8449        206
  26.8635        218
  26.8821        186
  26.9006        187
  26.9192        180
  26.9378        180
  26.9564        178
  26.9749        190
  26.9935        191
  27.0121        189
  27.0307        191
  27.0492        177
  27.0678        175
  27.0864        172
  27.1050        176
  27.1235        165
  27.1421        196
  27.1607        191
  27.1793        235
  27.1978        233
  27.2164        276
  27.2350        246
  27.2536        218
  27.2721        200
  27.2907        233
  27.3093        214
  27.3279        211
  27.3464        206
  27.3650        178
  27.3836        193
  27.4022        187
  27.4207        196
  27.4393        185
  27.4579        170
  27.4765        169
  27.4951        180
  27.5136        189
  27.5322        179
  27.5508        190
  27.5694        164
  27.5879        177
  27.6065        166
  27.6251        193
  27.6437        194
  27.6622        179
  27.6808        171
  27.6994        160
  27.7180        160
  27.7365        193
  27.7551        175
  27.7737        171
  27.7923        174
  27.8108        145
  27.8294        167
  27.8480        167
  27.8666        185
  27.8851        192
  27.9037        192
  27.9223        165
  27.9409        174
  27.9594        160
  27.9780        191
  27.9966        183
  28.0152        167
  28.0337        171
  28.0523        181
  28.0709        170
  28.0895        174
  28.1080        199
  28.1266        183
  28.1452        171
  28.1638        150
  28.1823        160
  28.2009        183
  28.2195        157
  28.2381        156
  28.2567        173
  28.2752        179
  28.2938        165
  28.3124        173
  28.3310        147
  28.3495        175
  28.3681        169
  28.3867        159
  28.4053        169
  28.4238        185
  28.4424        157
  28.4610        176
  28.4796        163
  28.4981        147
  28.5167        186
  28.5353        155
  28.5539        164
  28.5724        155
  28.5910        186
  28.6096        183
  28.6282        189
  28.6467        155
  28.6653        173
  28.6839        146
  28.7025        165
  28.7210        156
  28.7396        173
  28.7582        176
  28.7768        170
  28.7953        161
  28.8139        181
  28.8325        162
  28.8511        147
  28.8696        169
  28.8882        157
  28.9068        163
  28.9254        179
  28.9439        150
  28.9625        139
  28.9811        147
  28.9997        168
  29.0183        175
  29.0368        161
  29.0554        137
  29.0740        154
  29.0926        171
  29.1111        156
  29.1297        145
  29.1483        150
  29.1669        164
  29.1854        166
  29.2040        187
  29.2226        159
  29.2412        147
  29.2597        167
  29.2783        165
  29.2969        150
  29.3155        160
  29.3340        170
  29.3526        151
  29.3712        143
  29.3898        150
  29.4083        157
  29.4269        168
  29.4455        154
  29.4641        167
  29.4826        165
  29.5012        136
  29.5198        156
  29.5384        164
  29.5569        152
  29.5755        145
  29.5941        156
  29.6127        151
  29.6312        160
  29.6498        150
  29.6684        157
  29.6870        158
  29.7055        172
  29.7241        162
  29.7427        140
  29.7613        174
  29.7799        166
  29.7984        130
  29.8170        144
  29.8356        163
  29.8542        149
  29.8727        156
  29.8913        189
  29.9099        156
  29.9285        162
  29.9470        144
  29.9656        158
  29.9842        145
  30.0028        168
  30.0213        174
  30.0399        139
  30.0585        169
  30.0771        153
  30.0956        166
  30.1142        156
  30.1328        173
  30.1514        136
  30.1699        171
  30.1885        164
  30.2071        155
  30.2257        168
  30.2442        156
  30.2628        168
  30.2814        179
  30.3000        175
  30.3185        194
  30.3371        193
  30.3557        238
  30.3743        274
  30.3928        339
  30.4114        266
  30.4300        239
  30.4486        242
  30.4671        250
  30.4857        247
  30.5043        161
  30.5229        180
  30.5415        185
  30.5600        153
  30.5786        141
  30.5972        188
  30.6158        160
  30.6343        162
  30.6529        153
  30.6715        158
  30.6901        162
  30.7086        147
  30.7272        144
  30.7458        166
  30.7644        171
  30.7829        163
  30.8015        149
  30.8201        154
  30.8387        161
  30.8572        137
  30.8758        126
  30.8944        152
  30.9130        129
  30.9315        129
  30.9501        140
  30.9687        139
  30.9873        151
  31.0058        132
  31.0244        150
  31.0430        135
  31.0616        151
  31.0801        134
  31.0987        136
  31.1173        134
  31.1359        152
  31.1544        162
  31.1730        128
  31.1916        144
  31.2102        134
  31.2287        115
  31.2473        138
  31.2659        137
  31.2845        149
  31.3030        152
  31.3216        114
  31.3402        144
  31.3588        144
  31.3774        129
  31.3959        143
  31.4145        148
  31.4331        136
  31.4517        128
  31.4702        131
  31.4888        141
  31.5074        155
  31.5260        134
  31.5445        157
  31.5631        160
  31.5817        139
  31.6003        168
  31.6188        158
  31.6374        133
  31.6560        108
  31.6746        131
  31.6931        133
  31.7117        142
  31.7303        131
  31.7489        138
  31.7674        133
  31.7860        146
  31.8046        131
  31.8232        138
  31.8417        128
  31.8603        155
  31.8789        156
  31.8975        133
  31.9160        125
  31.9346        129
  31.9532        141
  31.9718        141
  31.9903        119
  32.0089        123
  32.0275        137
  32.0461        156
  32.0646        110
  32.0832        131
  32.1018        133
  32.1204        127
  32.1390        153
  32.1575        127
  32.1761        108
  32.1947        131
  32.2133        132
  32.2318        131
  32.2504        165
  32.2690        127
  32.2876        109
  32.3061        139
  32.3247        123
  32.3433        133
  32.3619        143
  32.3804        156
  32.3990        129
  32.4176        127
  32.4362        145
  32.4547        154
  32.4733        153
  32.4919        151
  32.5105        128
  32.5290        129
  32.5476        144
  32.5662        137
  32.5848        138
  32.6033        134
  32.6219        115
  32.6405        135
  32.6591        134
  32.6776        138
  32.6962        123
  32.7148        131
  32.7334        122
  32.7519        111
  32.7705        115
  32.7891        117
  32.8077        126
  32.8262        141
  32.8448        124
  32.8634        141
  32.8820        151
  32.9006        117
  32.9191        125
  32.9377        131
  32.9563        121
  32.9749        119
  32.9934        135
  33.0120        108
  33.0306        133
  33.0492        121
  33.0677        140
  33.0863        129
  33.1049        121
  33.1235        132
  33.1420        125
  33.1606        126
  33.1792        110
  33.1978        106
  33.2163        123
  33.2349        113
  33.2535        121
  33.2721        102
  33.2906        107
  33.3092        115
  33.3278        110
  33.3464        129
  33.3649        102
  33.3835        130
  33.4021        113
  33.4207        112
  33.4392        122
  33.4578        139
  33.4764        125
  33.4950        127
  33.5135        126
  33.5321        106
  33.5507        119
  33.5693         98
  33.5878        117
  33.6064        111
  33.6250        125
  33.6436        108
  33.6622        118
  33.6807        113
  33.6993        118
  33.7179        116
  33.7365        105
  33.7550        127
  33.7736         92
  33.7922        113
  33.8108        108
  33.8293        132
  33.8479        124
  33.8665        123
  33.8851        117
  33.9036        108
  33.9222        121
  33.9408        131
  33.9594        121
  33.9779        122
  33.9965        101
  34.0151        140
  34.0337        114
  34.0522        115
  34.0708        109
  34.0894        126
  34.1080        121
  34.1265        106
  34.1451        135
  34.1637        111
  34.1823        121
  34.2008        119
  34.2194        106
  34.2380        117
  34.2566        111
  34.2751        106
  34.2937         97
  34.3123        126
  34.3309         97
  34.3494        123
  34.3680        103
  34.3866        127
  34.4052        135
  34.4238        112
  34.4423        115
  34.4609         93
  34.4795        128
  34.4981        120
  34.5166        117
  34.5352        114
  34.5538        112
  34.5724        112
  34.5909        122
  34.6095        110
  34.6281        147
  34.6467        150
  34.6652        124
  34.6838        135
  34.7024        130
  34.7210        132
  34.7395        140
  34.7581        154
  34.7767        175
  34.7953        165
  34.8138        137
  34.8324        124
  34.8510        134
  34.8696        146
  34.8881        132
  34.9067        126
  34.9253        111
  34.9439        117
  34.9624        103
  34.9810        109
  34.9996        105
  35.0182        110
  35.0367        119
  35.0553        105
  35.0739         95
  35.0925        104
  35.1110        114
  35.1296        107
  35.1482        130
  35.1668        105
  35.1854        103
  35.2039         98
  35.2225        115
  35.2411        104
  35.2597         94
  35.2782        105
  35.2968        108
  35.3154         93
  35.3340         90
  35.3525        106
  35.3711        104
  35.3897        114
  35.4083        100
  35.4268        103
  35.4454        107
  35.4640        121
  35.4826         99
  35.5011        107
  35.5197         91
  35.5383        100
  35.5569        114
  35.5754        111
  35.5940         96
  35.6126        111
  35.6312        101
  35.6497         84
  35.6683         96
  35.6869        108
  35.7055         92
  35.7240         91
  35.7426        100
  35.7612         98
  35.7798        104
  35.7983        101
  35.8169         80
  35.8355        102
  35.8541        104
  35.8726         83
  35.8912         88
  35.9098         81
  35.9284        100
  35.9469         96
  35.9655        104
  35.9841         90
  36.0027        112
  36.0213        105
  36.0398         97
  36.0584        105
  36.0770        113
  36.0956         80
  36.1141         83
  36.1327         92
  36.1513         85
  36.1699         95
  36.1884        115
  36.2070         93
  36.2256        100
  36.2442        108
  36.2627        106
  36.2813         97
  36.2999        103
  36.3185         93
  36.3370         97
  36.3556         93
  36.3742         99
  36.3928        105
  36.4113        104
  36.4299         89
  36.4485         94
  36.4671         97
  36.4856         95
  36.5042         89
  36.5228        100
  36.5414        111
  36.5599         84
  36.5785         94
  36.5971         90
  36.6157        102
  36.6342         82
  36.6528         85
  36.6714         87
  36.6900         89
  36.7085         84
  36.7271         80
  36.7457         95
  36.7643         93
  36.7829        106
  36.8014        103
  36.8200        124
  36.8386         88
  36.8572         64
  36.8757        103
  36.8943         71
  36.9129        101
  36.9315         89
  36.9500         89
  36.9686         92
  36.9872         98
  37.0058         90
  37.0243         96
  37.0429         95
  37.0615         85
  37.0801         84
  37.0986         85
  37.1172         81
  37.1358         80
  37.1544         88
  37.1729         95
  37.1915         89
  37.2101         99
  37.2287         93
  37.2472        100
  37.2658         92
  37.2844        106
  37.3030        108
  37.3215         83
  37.3401         95
  37.3587        106
  37.3773        104
  37.3958        104
  37.4144        132
  37.4330        138
  37.4516        156
  37.4701        112
  37.4887        112
  37.5073        109
  37.5259        119
  37.5445        150
  37.5630         99
  37.5816         96
  37.6002         93
  37.6188        105
  37.6373         98
  37.6559        105
  37.6745        115
  37.6931        106
  37.7116         84
  37.7302         73
  37.7488         78
  37.7674         97
  37.7859         87
  37.8045         80
  37.8231         87
  37.8417         94
  37.8602         84
  37.8788         87
  37.8974         89
  37.9160         93
  37.9345        103
  37.9531         78
  37.9717         83
  37.9903         78
  38.0088         91
  38.0274         95
  38.0460         63
  38.0646         78
  38.0831         64
  38.1017         95
  38.1203         95
  38.1389         89
  38.1574         86
  38.1760         77
  38.1946         84
  38.2132         74
  38.2317         86
  38.2503         86
  38.2689         84
  38.2875         85
  38.3061         95
  38.3246         82
  38.3432         77
  38.3618        101
  38.3804        102
  38.3989         88
  38.4175         86
  38.4361         83
  38.4547         81
  38.4732         58
  38.4918        104
  38.5104         78
  38.5290         86
  38.5475         77
  38.5661         78
  38.5847         75
  38.6033         88
  38.6218         87
  38.6404         84
  38.6590         84
  38.6776         79
  38.6961         81
  38.7147         83
  38.7333         80
  38.7519         94
  38.7704         78
  38.7890         89
  38.8076         83
  38.8262        112
  38.8447         74
  38.8633         81
  38.8819         76
  38.9005         79
  38.9190         63
  38.9376         80
  38.9562         93
  38.9748         99
  38.9933         90
  39.0119         84
  39.0305         81
  39.0491         73
  39.0677         97
  39.0862         81
  39.1048         83
  39.1234         76
  39.1420         84
  39.1605         66
  39.1791         78
  39.1977         77
  39.2163         71
  39.2348         69
  39.2534         86
  39.2720         85
  39.2906         61
  39.3091         84
  39.3277         71
  39.3463         88
  39.3649         84
  39.3834         78
  39.4020         70
  39.4206         78
  39.4392         67
  39.4577         77
  39.4763         85
  39.4949         90
  39.5135         68
  39.5320         76
  39.5506         89
  39.5692         68
  39.5878         61
  39.6063         86
  39.6249         87
  39.6435         82
  39.6621         91
  39.6806         96
  39.6992         86
  39.7178         73
  39.7364         69
  39.7549         86
  39.7735         78
  39.7921         89
  39.8107         67
  39.8293         85
  39.8478         67
  39.8664         70
  39.8850         86
  39.9036         80
  39.9221         87
  39.9407         65
  39.9593         96
  39.9779         82
  39.9964         79
  40.0150         80
  40.0336         78
  40.0522         80
  40.0707         74
  40.0893         78
  40.1079         80
  40.1265         78
  40.1450         74
  40.1636         86
  40.1822         82
  40.2008         61
  40.2193         74
  40.2379         97
  40.2565         60
  40.2751         80
  40.2936         72
  40.3122         73
  40.3308         87
  40.3494         63
  40.3679         71
  40.3865         58
  40.4051         69
  40.4237         77
  40.4422         63
  40.4608         75
  40.4794         89
  40.4980         79
  40.5165         74
  40.5351         78
  40.5537         70
  40.5723         78
  40.5908         77
  40.6094         77
  40.6280         72
  40.6466         77
  40.6652         90
  40.6837         79
  40.7023         79
  40.7209         69
  40.7395         68
  40.7580         83
  40.7766         69
  40.7952         80
  40.8138         63
  40.8323         70
  40.8509         76
  40.8695         79
  40.8881         67
  40.9066         77
  40.9252         80
  40.9438         86
  40.9624         90
  40.9809         84
  40.9995         85
  41.0181         85
  41.0367         70
  41.0552         77
  41.0738         82
  41.0924         68
  41.1110         71
  41.1295         67
  41.1481         77
  41.1667         66
  41.1853         79
  41.2038         99
  41.2224         81
  41.2410        101
  41.2596         76
  41.2781         80
  41.2967         89
  41.3153         64
  41.3339         83
  41.3524         84
  41.3710         75
  41.3896         69
  41.4082         80
  41.4268         66
  41.4453         75
  41.4639         81
  41.4825         82
  41.5011         87
  41.5196         76
  41.5382         77
  41.5568         70
  41.5754         81
  41.5939         84
  41.6125         69
  41.6311         83
  41.6497         68
  41.6682         79
  41.6868         71
  41.7054         74
  41.7240         75
  41.7425         69
  41.7611         81
  41.7797         69
  41.7983         64
  41.8168         71
  41.8354         86
  41.8540         80
  41.8726         91
  41.8911         72
  41.9097         89
  41.9283         80
  41.9469         80
  41.9654         74
  41.9840         75
  42.0026         76
  42.0212         66
  42.0397         75
  42.0583         75
  42.0769         71
  42.0955         75
  42.1140         87
  42.1326         77
  42.1512         69
  42.1698         77
  42.1884         86
  42.2069         81
  42.2255         73
  42.2441         82
  42.2627         70
  42.2812         79
  42.2998         76
  42.3184         70
  42.3370         81
  42.3555         77
  42.3741         55
  42.3927         67
  42.4113         71
  42.4298         84
  42.4484         59
  42.4670         66
  42.4856         79
  42.5041         73
  42.5227         74
  42.5413         69
  42.5599         71
  42.5784         65
  42.5970         83
  42.6156         75
  42.6342         75
  42.6527         67
  42.6713         76
  42.6899         71
  42.7085         81
  42.7270         74
  42.7456         65
  42.7642         70
  42.7828         79
  42.8013         70
  42.8199         64
  42.8385         66
  42.8571         80
  42.8756         74
  42.8942         63
  42.9128         67
  42.9314         68
  42.9500         81
  42.9685         75
  42.9871         76
  43.0057         74
  43.0243         75
  43.0428         56
  43.0614         72
  43.0800         76
  43.0986         72
  43.1171         62
  43.1357         84
  43.1543         72
  43.1729         89
  43.1914         77
  43.2100         86
  43.2286         89
  43.2472         87
  43.2657         97
  43.2843         73
  43.3029         80
  43.3215         84
  43.3400         74
  43.3586         84
  43.3772         88
  43.3958         76
  43.4143         86
  43.4329         87
  43.4515         81
  43.4701         95
  43.4886        122
  43.5072        128
  43.5258        134
  43.5444        105
  43.5629         79
  43.5815         99
  43.6001         95
  43.6187        107
  43.6372         98
  43.6558         78
  43.6744         70
  43.6930         74
  43.7116         71
  43.7301         76
  43.7487         80
  43.7673         75
  43.7859         74
  43.8044         77
  43.8230         61
  43.8416         85
  43.8602         73
  43.8787         64
  43.8973         70
  43.9159         81
  43.9345         84
  43.9530         66
  43.9716         72
  43.9902         67
  44.0088         80
  44.0273         78
  44.0459         74
  44.0645         82
  44.0831         74
  44.1016         69
  44.1202         75
  44.1388         71
  44.1574         68
  44.1759         65
  44.1945         66
  44.2131         71
  44.2317         84
  44.2502         67
  44.2688         62
  44.2874         69
  44.3060         52
  44.3245         75
  44.3431         72
  44.3617         81
  44.3803         67
  44.3988         85
  44.4174         67
  44.4360         90
  44.4546         79
  44.4732         74
  44.4917         75
  44.5103         79
  44.5289         69
  44.5475         85
  44.5660         73
  44.5846         64
  44.6032         77
  44.6218         80
  44.6403         79
  44.6589         83
  44.6775         83
  44.6961         70
  44.7146         84
  44.7332         75
  44.7518         72
  44.7704         88
  44.7889         78
  44.8075         61
  44.8261         62
  44.8447         69
  44.8632         78
  44.8818         68
  44.9004         74
  44.9190         57
  44.9375         63
  44.9561         52
  44.9747         74
  44.9933         84
  45.0118        101
  45.0304         73
  45.0490         81
  45.0676         65
  45.0861         81
  45.1047         67
  45.1233         74
  45.1419         78
  45.1604         80
  45.1790         70
  45.1976         78
  45.2162         84
  45.2347         72
  45.2533         59
  45.2719         64
  45.2905         77
  45.3091         80
  45.3276         70
  45.3462         66
  45.3648         56
  45.3834         74
  45.4019         76
  45.4205         75
  45.4391         77
  45.4577         66
  45.4762         74
  45.4948         66
  45.5134         81
  45.5320         60
  45.5505         71
  45.5691         84
  45.5877         81
  45.6063         72
  45.6248         68
  45.6434         72
  45.6620         58
  45.6806         75
  45.6991         57
  45.7177         65
  45.7363         66
  45.7549         61
  45.7734         77
  45.7920         69
  45.8106         75
  45.8292         81
  45.8477         70
  45.8663         75
  45.8849         60
  45.9035         65
  45.9220         67
  45.9406         61
  45.9592         76
  45.9778         60
  45.9963         75
  46.0149         76
  46.0335         48
  46.0521         73
  46.0707         52
  46.0892         70
  46.1078         56
  46.1264         55
  46.1450         71
  46.1635         80
  46.1821         65
  46.2007         69
  46.2193         69
  46.2378         80
  46.2564         75
  46.2750         73
  46.2936         60
  46.3121         78
  46.3307         60
  46.3493         53
  46.3679         71
  46.3864         64
  46.4050         68
  46.4236         73
  46.4422         71
  46.4607         60
  46.4793         65
  46.4979         74
  46.5165         62
  46.5350         70
  46.5536         50
  46.5722         60
  46.5908         62
  46.6093         68
  46.6279         72
  46.6465         62
  46.6651         61
  46.6836         70
  46.7022         61
  46.7208         57
  46.7394         66
  46.7579         68
  46.7765         67
  46.7951         49
  46.8137         57
  46.8323         59
  46.8508         62
  46.8694         70
  46.8880         62
  46.9066         56
  46.9251         68
  46.9437         82
  46.9623         64
  46.9809         72
  46.9994         78
  47.0180         79
  47.0366         71
  47.0552         73
  47.0737         58
  47.0923         68
  47.1109         59
  47.1295         63
  47.1480         62
  47.1666         82
  47.1852         67
  47.2038         75
  47.2223         45
  47.2409         65
  47.2595         66
  47.2781         55
  47.2966         64
  47.3152         64
  47.3338         61
  47.3524         77
  47.3709         61
  47.3895         71
  47.4081         51
  47.4267         67
  47.4452         64
  47.4638         63
  47.4824         62
  47.5010         48
  47.5195         51
  47.5381         59
  47.5567         56
  47.5753         66
  47.5939         71
  47.6124         59
  47.6310         83
  47.6496         56
  47.6682         76
  47.6867         66
  47.7053         67
  47.7239         61
  47.7425         59
  47.7610         64
  47.7796         67
  47.7982         66
  47.8168         49
  47.8353         62
  47.8539         68
  47.8725         62
  47.8911         69
  47.9096         66
  47.9282         62
  47.9468         68
  47.9654         74
  47.9839         83
  48.0025         78
  48.0211         63
  48.0397         62
  48.0582         54
  48.0768         63
  48.0954         57
  48.1140         43
  48.1325         64
  48.1511         89
  48.1697         66
  48.1883         69
  48.2068         63
  48.2254         70
  48.2440         63
  48.2626         58
  48.2811         73
  48.2997         56
  48.3183         52
  48.3369         64
  48.3555         43
  48.3740         68
  48.3926         56
  48.4112         54
  48.4298         53
  48.4483         54
  48.4669         56
  48.4855         76
  48.5041         44
  48.5226         46
  48.5412         66
  48.5598         63
  48.5784         72
  48.5969         60
  48.6155         64
  48.6341         66
  48.6527         60
  48.6712         67
  48.6898         73
  48.7084         56
  48.7270         59
  48.7455         53
  48.7641         59
  48.7827         67
  48.8013         59
  48.8198         75
  48.8384         57
  48.8570         70
  48.8756         77
  48.8941         75
  48.9127         94
  48.9313        105
  48.9499        132
  48.9684        123
  48.9870        110
  49.0056         62
  49.0242         64
  49.0427         82
  49.0613         80
  49.0799        103
  49.0985         89
  49.1171         78
  49.1356         75
  49.1542         70
  49.1728         70
  49.1914         76
  49.2099         60
  49.2285         57
  49.2471         67
  49.2657         76
  49.2842         64
  49.3028         65
  49.3214         58
  49.3400         58
  49.3585         63
  49.3771         66
  49.3957         59
  49.4143         75
  49.4328         69
  49.4514         68
  49.4700         67
  49.4886         71
  49.5071         63
  49.5257         56
  49.5443         64
  49.5629         62
  49.5814         64
  49.6000         63
  49.6186         64
  49.6372         67
  49.6557         53
  49.6743         60
  49.6929         69
  49.7115         52
  49.7300         61
  49.7486         73
  49.7672         51
  49.7858         55
  49.8043         60
  49.8229         81
  49.8415         57
  49.8601         76
  49.8786         52
  49.8972         80
  49.9158         67
  49.9344         49
  49.9530         56
  49.9715         66
  49.9901         63
  50.0087         75
  50.0273         69
  50.0458         58
  50.0644         68
  50.0830         60
  50.1016         69
  50.1201         68
  50.1387         63
  50.1573         72
  50.1759         63
  50.1944         73
  50.2130         60
  50.2316         73
  50.2502         72
  50.2687         62
  50.2873         68
  50.3059         47
  50.3245         87
  50.3430         80
  50.3616         75
  50.3802         64
  50.3988         65
  50.4173         63
  50.4359         57
  50.4545         53
  50.4731         71
  50.4916         77
  50.5102         71
  50.5288         61
  50.5474         63
  50.5659         63
  50.5845         60
  50.6031         69
  50.6217         83
  50.6402         62
  50.6588         65
  50.6774         66
  50.6960         52
  50.7146         53
  50.7331         64
  50.7517         70
  50.7703         59
  50.7889         59
  50.8074         62
  50.8260         66
  50.8446         57
  50.8632         55
  50.8817         57
  50.9003         80
  50.9189         72
  50.9375         56
  50.9560         52
  50.9746         56
  50.9932         52
  51.0118         48
  51.0303         63
  51.0489         43
  51.0675         61
  51.0861         54
  51.1046         60
  51.1232         69
  51.1418         57
  51.1604         49
  51.1789         71
  51.1975         65
  51.2161         55
  51.2347         65
  51.2532         61
  51.2718         74
  51.2904         66
  51.3090         66
  51.3275         77
  51.3461         62
  51.3647         62
  51.3833         53
  51.4018         75
  51.4204         83
  51.4390         78
  51.4576         57
  51.4762         72
  51.4947         75
  51.5133         72
  51.5319         67
  51.5505         82
  51.5690         68
  51.5876         65
  51.6062         57
  51.6248         63
  51.6433         57
  51.6619         63
  51.6805         66
  51.6991         67
  51.7176         56
  51.7362         55
  51.7548         70
  51.7734         61
  51.7919         68
  51.8105         64
  51.8291         58
  51.8477         57
  51.8662         57
  51.8848         81
  51.9034         54
  51.9220         63
  51.9405         56
  51.9591         52
  51.9777         66
  51.9963         76
  52.0148         57
  52.0334         63
  52.0520         49
  52.0706         61
  52.0891         48
  52.1077         56
  52.1263         65
  52.1449         52
  52.1634         55
  52.1820         60
  52.2006         64
  52.2192         61
  52.2378         46
  52.2563         50
  52.2749         67
  52.2935         50
  52.3121         48
  52.3306         62
  52.3492         57
  52.3678         54
  52.3864         64
  52.4049         46
  52.4235         69
  52.4421         56
  52.4607         54
  52.4792         58
  52.4978         62
  52.5164         49
  52.5350         59
  52.5535         56
  52.5721         60
  52.5907         47
  52.6093         44
  52.6278         56
  52.6464         60
  52.6650         63
  52.6836         64
  52.7021         45
  52.7207         54
  52.7393         52
  52.7579         55
  52.7764         68
  52.7950         48
  52.8136         63
  52.8322         51
  52.8507         58
  52.8693         66
  52.8879         53
  52.9065         70
  52.9250         66
  52.9436         63
  52.9622         58
  52.9808         61
  52.9994         77
  53.0179         65
  53.0365         66
  53.0551         61
  53.0737         58
  53.0922         59
  53.1108         57
  53.1294         53
  53.1480         58
  53.1665         60
  53.1851         52
  53.2037         64
  53.2223         54
  53.2408         60
  53.2594         45
  53.2780         55
  53.2966         63
  53.3151         68
  53.3337         66
  53.3523         49
  53.3709         54
  53.3894         51
  53.4080         59
  53.4266         56
  53.4452         60
  53.4637         50
  53.4823         44
  53.5009         51
  53.5195         75
  53.5380         59
  53.5566         52
  53.5752         62
  53.5938         68
  53.6123         55
  53.6309         51
  53.6495         54
  53.6681         51
  53.6866         57
  53.7052         62
  53.7238         53
  53.7424         66
  53.7610         56
  53.7795         50
  53.7981         62
  53.8167         62
  53.8353         62
  53.8538         56
  53.8724         60
  53.8910         60
  53.9096         69
  53.9281         79
  53.9467         63
  53.9653         71
  53.9839         82
  54.0024         70
  54.0210         70
  54.0396         65
  54.0582         50
  54.0767         69
  54.0953         74
  54.1139         79
  54.1325         67
  54.1510         69
  54.1696         62
  54.1882         58
  54.2068         60
  54.2253         50
  54.2439         47
  54.2625         56
  54.2811         51
  54.2996         56
  54.3182         61
  54.3368         57
  54.3554         69
  54.3739         61
  54.3925         54
  54.4111         69
  54.4297         52
  54.4482         63
  54.4668         76
  54.4854         56
  54.5040         52
  54.5225         59
  54.5411         68
  54.5597         52
  54.5783         56
  54.5969         46
  54.6154         49
  54.6340         45
  54.6526         59
  54.6712         47
  54.6897         56
  54.7083         46
  54.7269         67
  54.7455         54
  54.7640         74
  54.7826         55
  54.8012         57
  54.8198         58
  54.8383         58
  54.8569         42
  54.8755         70
  54.8941         78
  54.9126         51
  54.9312         57
  54.9498         60
  54.9684         56
  54.9869         57
  55.0055         56
  55.0241         67
  55.0427         72
  55.0612         55
  55.0798         50
  55.0984         65
  55.1170         52
  55.1355         48
  55.1541         52
  55.1727         47
  55.1913         52
  55.2098         46
  55.2284         58
  55.2470         61
  55.2656         53
  55.2841         59
  55.3027         55
  55.3213         52
  55.3399         48
  55.3585         56
  55.3770         58
  55.3956         53
  55.4142         51
  55.4328         41
  55.4513         52
  55.4699         57
  55.4885         52
  55.5071         59
  55.5256         53
  55.5442         47
  55.5628         43
  55.5814         64
  55.5999         68
  55.6185         48
  55.6371         52
  55.6557         48
  55.6742         68
  55.6928         51
  55.7114         59
  55.7300         63
  55.7485         57
  55.7671         61
  55.7857         70
  55.8043         67
  55.8228         50
  55.8414         60
  55.8600         54
  55.8786         70
  55.8971         49
  55.9157         53
  55.9343         61
  55.9529         54
  55.9714         57
  55.9900         66
  56.0086         55
  56.0272         48
  56.0457         49
  56.0643         59
  56.0829         67
  56.1015         71
  56.1201         51
  56.1386         65
  56.1572         66
  56.1758         70
  56.1944         54
  56.2129         63
  56.2315         80
  56.2501         64
  56.2687         63
  56.2872         50
  56.3058         55
  56.3244         54
  56.3430         68
  56.3615         61
  56.3801         52
  56.3987         64
  56.4173         67
  56.4358         52
  56.4544         65
  56.4730         45
  56.4916         59
  56.5101         78
  56.5287         58
  56.5473         56
  56.5659         65
  56.5844         52
  56.6030         45
  56.6216         56
  56.6402         67
  56.6587         48
  56.6773         48
  56.6959         67
  56.7145         66
  56.7330         55
  56.7516         54
  56.7702         58
  56.7888         72
  56.8073         63
  56.8259         59
  56.8445         44
  56.8631         53
  56.8817         59
  56.9002         43
  56.9188         47
  56.9374         52
  56.9560         49
  56.9745         52
  56.9931         60
  57.0117         60
  57.0303         63
  57.0488         63
  57.0674         61
  57.0860         57
  57.1046         39
  57.1231         53
  57.1417         56
  57.1603         48
  57.1789         59
  57.1974         68
  57.2160         45
  57.2346         49
  57.2532         55
  57.2717         46
  57.2903         50
  57.3089         44
  57.3275         77
  57.3460         49
  57.3646         57
  57.3832         46
  57.4018         54
  57.4203         54
  57.4389         77
  57.4575         56
  57.4761         53
  57.4946         69
  57.5132         55
  57.5318         59
  57.5504         60
  57.5689         47
  57.5875         47
  57.6061         53
  57.6247         64
  57.6433         45
  57.6618         62
  57.6804         65
  57.6990         65
  57.7176         63
  57.7361         71
  57.7547         54
  57.7733         66
  57.7919         54
  57.8104         65
  57.8290         64
  57.8476         59
  57.8662         62
  57.8847         52
  57.9033         59
  57.9219         60
  57.9405         73
  57.9590         46
  57.9776         64
  57.9962         51
  58.0148         58
  58.0333         60
  58.0519         47
  58.0705         65
  58.0891         59
  58.1076         43
  58.1262         54
  58.1448         54
  58.1634         57
  58.1819         56
  58.2005         51
  58.2191         43
  58.2377         53
  58.2562         53
  58.2748         72
  58.2934         58
  58.3120         54
  58.3305         51
  58.3491         57
  58.3677         61
  58.3863         58
  58.4049         67
  58.4234         54
  58.4420         69
  58.4606         61
  58.4792         59
  58.4977         61
  58.5163         56
  58.5349         49
  58.5535         72
  58.5720         51
  58.5906         44
  58.6092         50
  58.6278         49
  58.6463         53
  58.6649         46
  58.6835         43
  58.7021         60
  58.7206         51
  58.7392         48
  58.7578         45
  58.7764         66
  58.7949         60
  58.8135         67
  58.8321         35
  58.8507         50
  58.8692         58
  58.8878         53
  58.9064         47
  58.9250         67
  58.9435         48
  58.9621         48
  58.9807         61
  58.9993         47
  59.0178         45
  59.0364         59
  59.0550         59
  59.0736         62
  59.0921         47
  59.1107         48
  59.1293         51
  59.1479         62
  59.1664         53
  59.1850         45
  59.2036         53
  59.2222         65
  59.2408         47
  59.2593         49
  59.2779         60
  59.2965         59
  59.3151         58
  59.3336         62
  59.3522         48
  59.3708         48
  59.3894         49
  59.4079         41
  59.4265         63
  59.4451         47
  59.4637         74
  59.4822         57
  59.5008         62
  59.5194         55
  59.5380         44
  59.5565         51
  59.5751         55
  59.5937         54
  59.6123         68
  59.6308         66
  59.6494         44
  59.6680         56
  59.6866         59
  59.7051         60
  59.7237         48
  59.7423         45
  59.7609         50
  59.7794         42
  59.7980         58
  59.8166         61
  59.8352         64
  59.8537         57
  59.8723         43
  59.8909         65
  59.9095         51
  59.9280         46
  59.9466         43
  59.9652         58
  59.9838         44
  60.0024         50
