; (content of file Y:\Sam\Apurva-07-20-2022\puck1\ML_20220721_31_SJD_0_LaB6-4min.raw)
_FILEVERSION = 3
_SAMPLE = ML_20220721_31_SJD_0_LaB6-4min
_+SAMPLE = 
_SITE = USA
_USER = Administrator
_GONIOMETER_CODE = 20
; Goniometer : D8 theta/2theta, stage : Unknown
_ATTACHMENTS_CODE = 0
_GONIOMETER_RADIUS = 200.5
_FIXED_DIVSLIT = 0.6
_FIXED_SAMPLESLIT = 0
_SOLLER_SLITS = 2
_FIXED_DETSLIT = 9.55
_MONOCHROMATOR = 0
; Incident beam monochromator : None
_SOLLER_SLITS_2 = N
_THIN_FILM = N
_BETA_FILTER = Y
_FIXED_ANTISLIT = 5.89
_ANALYZER_CODE = 0
; Received beam analyzer : None
_DATEMEASURED = "25-Jul-2022 16:11:29"
_WL_UNIT = A
_WL1 = 1.5406
_WL2 = 1.54439
_WL3 = 1.39222
_WLRATIO = 0.5
_ANODE = Cu
_V4_INF_CREATOR = XRDWizard
_V4_INF_CREATOR_VERSION = V2.9.0.22
_V4_INF_WIZARD_VERSION = V2.9.0.22
_V4_INF_WIZARD_ADDINS = V2.9.0.22
_V4_INF_WIZARD_DOCTYPE = XRD
_V4_INF_OSUSER = McQueenLab
_V4_INF_USER = Administrator
_V4_INF_SITE = USA
_V4_INF_SAMPLEID = ML_20220721_31_SJD_0_LaB6-4min

; Data for range 1
_DRIVE = COUPLED
_STEPTIME = 11.28
_STEPSIZE = 0.0185756
_STEPMODE = C
_START = 5
_THETA = 2.5
_2THETA = 5
_KHI = 0
_PHI = 0
_X = 0
_Y = 0
_Z = 0
_DETECTOR = 5
; Detector type : Unknown
_DETECTORSLIT = unkn
_AUX1 = 0
_AUX2 = 0
_AUX3 = 0
_TIMESTARTED = 15
_TEMP_RATE = -1
_TEMP_DELAY = -1
_KV = 40
_MA = 40
_RANGE_WL = 1.5406
_3DPLANE = 0
_V4_ADDITIONALDETECTOR = 257
_V4_PSD2THETA = 3.365
_V4_PSDCHANNEL1 = 0
_V4_PSDAPERTURE = 12.68
_V4_PSDTYPE = 5
_V4_PSDFIXED = 0
_V4_COUNTERS_MASK = 4096
_V4_DRIVES_MASK = 0
_V4_ENCODERS_MASK = 0
_2THETACOUNTS = 1
; 2THETA  PSD
   5.0000        275
   5.0186        256
   5.0372        265
   5.0557        249
   5.0743        253
   5.0929        292
   5.1115        244
   5.1300        240
   5.1486        239
   5.1672        256
   5.1858        272
   5.2043        219
   5.2229        259
   5.2415        254
   5.2601        257
   5.2786        258
   5.2972        271
   5.3158        238
   5.3344        256
   5.3529        244
   5.3715        209
   5.3901        264
   5.4087        235
   5.4272        253
   5.4458        232
   5.4644        239
   5.4830        238
   5.5015        239
   5.5201        211
   5.5387        253
   5.5573        204
   5.5758        231
   5.5944        235
   5.6130        204
   5.6316        199
   5.6501        230
   5.6687        228
   5.6873        203
   5.7059        228
   5.7244        210
   5.7430        223
   5.7616        208
   5.7802        209
   5.7988        202
   5.8173        216
   5.8359        181
   5.8545        210
   5.8731        205
   5.8916        222
   5.9102        216
   5.9288        187
   5.9474        199
   5.9659        211
   5.9845        203
   6.0031        202
   6.0217        231
   6.0402        191
   6.0588        212
   6.0774        213
   6.0960        203
   6.1145        194
   6.1331        200
   6.1517        204
   6.1703        195
   6.1888        183
   6.2074        206
   6.2260        202
   6.2446        221
   6.2631        204
   6.2817        203
   6.3003        182
   6.3189        155
   6.3374        153
   6.3560        194
   6.3746        157
   6.3932        180
   6.4117        186
   6.4303        183
   6.4489        170
   6.4675        196
   6.4860        215
   6.5046        175
   6.5232        197
   6.5418        196
   6.5604        178
   6.5789        188
   6.5975        146
   6.6161        176
   6.6347        167
   6.6532        176
   6.6718        163
   6.6904        181
   6.7090        162
   6.7275        162
   6.7461        152
   6.7647        175
   6.7833        171
   6.8018        174
   6.8204        150
   6.8390        179
   6.8576        177
   6.8761        184
   6.8947        167
   6.9133        182
   6.9319        132
   6.9504        172
   6.9690        156
   6.9876        178
   7.0062        142
   7.0247        157
   7.0433        155
   7.0619        151
   7.0805        171
   7.0990        164
   7.1176        166
   7.1362        174
   7.1548        179
   7.1733        164
   7.1919        176
   7.2105        173
   7.2291        149
   7.2476        155
   7.2662        182
   7.2848        157
   7.3034        162
   7.3220        157
   7.3405        156
   7.3591        155
   7.3777        192
   7.3963        155
   7.4148        160
   7.4334        153
   7.4520        160
   7.4706        143
   7.4891        153
   7.5077        178
   7.5263        145
   7.5449        172
   7.5634        174
   7.5820        175
   7.6006        152
   7.6192        177
   7.6377        185
   7.6563        221
   7.6749        162
   7.6935        167
   7.7120        165
   7.7306        206
   7.7492        172
   7.7678        170
   7.7863        180
   7.8049        199
   7.8235        179
   7.8421        204
   7.8606        173
   7.8792        170
   7.8978        192
   7.9164        207
   7.9349        163
   7.9535        191
   7.9721        199
   7.9907        198
   8.0092        176
   8.0278        188
   8.0464        199
   8.0650        205
   8.0835        166
   8.1021        211
   8.1207        189
   8.1393        206
   8.1579        196
   8.1764        186
   8.1950        210
   8.2136        191
   8.2322        192
   8.2507        197
   8.2693        236
   8.2879        180
   8.3065        204
   8.3250        212
   8.3436        195
   8.3622        192
   8.3808        214
   8.3993        198
   8.4179        173
   8.4365        208
   8.4551        229
   8.4736        188
   8.4922        215
   8.5108        220
   8.5294        190
   8.5479        233
   8.5665        221
   8.5851        217
   8.6037        200
   8.6222        185
   8.6408        192
   8.6594        213
   8.6780        217
   8.6965        217
   8.7151        191
   8.7337        194
   8.7523        190
   8.7708        212
   8.7894        226
   8.8080        240
   8.8266        205
   8.8451        222
   8.8637        258
   8.8823        226
   8.9009        236
   8.9195        227
   8.9380        227
   8.9566        206
   8.9752        229
   8.9938        263
   9.0123        190
   9.0309        206
   9.0495        208
   9.0681        223
   9.0866        213
   9.1052        236
   9.1238        248
   9.1424        205
   9.1609        222
   9.1795        203
   9.1981        215
   9.2167        243
   9.2352        227
   9.2538        225
   9.2724        211
   9.2910        207
   9.3095        191
   9.3281        203
   9.3467        222
   9.3653        195
   9.3838        263
   9.4024        232
   9.4210        222
   9.4396        230
   9.4581        227
   9.4767        230
   9.4953        221
   9.5139        224
   9.5324        231
   9.5510        236
   9.5696        254
   9.5882        226
   9.6067        227
   9.6253        228
   9.6439        205
   9.6625        232
   9.6811        214
   9.6996        241
   9.7182        244
   9.7368        224
   9.7554        221
   9.7739        211
   9.7925        225
   9.8111        208
   9.8297        246
   9.8482        231
   9.8668        220
   9.8854        206
   9.9040        216
   9.9225        239
   9.9411        228
   9.9597        251
   9.9783        251
   9.9968        220
  10.0154        226
  10.0340        233
  10.0526        237
  10.0711        267
  10.0897        254
  10.1083        225
  10.1269        242
  10.1454        233
  10.1640        241
  10.1826        254
  10.2012        253
  10.2197        248
  10.2383        257
  10.2569        235
  10.2755        268
  10.2940        240
  10.3126        231
  10.3312        255
  10.3498        217
  10.3683        225
  10.3869        208
  10.4055        236
  10.4241        244
  10.4427        252
  10.4612        233
  10.4798        208
  10.4984        250
  10.5170        226
  10.5355        245
  10.5541        227
  10.5727        241
  10.5913        267
  10.6098        240
  10.6284        261
  10.6470        262
  10.6656        243
  10.6841        253
  10.7027        230
  10.7213        253
  10.7399        237
  10.7584        239
  10.7770        253
  10.7956        236
  10.8142        240
  10.8327        278
  10.8513        237
  10.8699        254
  10.8885        234
  10.9070        230
  10.9256        223
  10.9442        189
  10.9628        243
  10.9813        228
  10.9999        244
  11.0185        262
  11.0371        223
  11.0556        219
  11.0742        266
  11.0928        214
  11.1114        241
  11.1299        260
  11.1485        252
  11.1671        217
  11.1857        206
  11.2043        265
  11.2228        231
  11.2414        230
  11.2600        214
  11.2786        238
  11.2971        284
  11.3157        243
  11.3343        255
  11.3529        203
  11.3714        215
  11.3900        241
  11.4086        208
  11.4272        237
  11.4457        254
  11.4643        218
  11.4829        222
  11.5015        246
  11.5200        247
  11.5386        232
  11.5572        235
  11.5758        258
  11.5943        229
  11.6129        216
  11.6315        235
  11.6501        221
  11.6686        228
  11.6872        229
  11.7058        207
  11.7244        218
  11.7429        220
  11.7615        245
  11.7801        244
  11.7987        226
  11.8172        231
  11.8358        222
  11.8544        236
  11.8730        235
  11.8915        228
  11.9101        211
  11.9287        221
  11.9473        193
  11.9659        233
  11.9844        202
  12.0030        229
  12.0216        252
  12.0402        237
  12.0587        233
  12.0773        197
  12.0959        211
  12.1145        229
  12.1330        256
  12.1516        230
  12.1702        234
  12.1888        195
  12.2073        217
  12.2259        219
  12.2445        207
  12.2631        228
  12.2816        252
  12.3002        228
  12.3188        236
  12.3374        236
  12.3559        205
  12.3745        253
  12.3931        215
  12.4117        208
  12.4302        199
  12.4488        218
  12.4674        225
  12.4860        236
  12.5045        225
  12.5231        210
  12.5417        200
  12.5603        231
  12.5788        230
  12.5974        190
  12.6160        227
  12.6346        214
  12.6531        212
  12.6717        220
  12.6903        203
  12.7089        220
  12.7274        214
  12.7460        207
  12.7646        208
  12.7832        228
  12.8018        229
  12.8203        214
  12.8389        203
  12.8575        222
  12.8761        222
  12.8946        223
  12.9132        228
  12.9318        182
  12.9504        220
  12.9689        215
  12.9875        225
  13.0061        200
  13.0247        216
  13.0432        227
  13.0618        204
  13.0804        208
  13.0990        192
  13.1175        231
  13.1361        202
  13.1547        217
  13.1733        201
  13.1918        209
  13.2104        201
  13.2290        208
  13.2476        207
  13.2661        192
  13.2847        209
  13.3033        229
  13.3219        188
  13.3404        197
  13.3590        227
  13.3776        178
  13.3962        202
  13.4147        190
  13.4333        203
  13.4519        212
  13.4705        202
  13.4890        206
  13.5076        205
  13.5262        226
  13.5448        200
  13.5634        200
  13.5819        202
  13.6005        203
  13.6191        168
  13.6377        201
  13.6562        203
  13.6748        193
  13.6934        171
  13.7120        198
  13.7305        207
  13.7491        154
  13.7677        190
  13.7863        188
  13.8048        210
  13.8234        182
  13.8420        168
  13.8606        162
  13.8791        196
  13.8977        159
  13.9163        183
  13.9349        165
  13.9534        186
  13.9720        179
  13.9906        188
  14.0092        189
  14.0277        200
  14.0463        202
  14.0649        189
  14.0835        169
  14.1020        176
  14.1206        187
  14.1392        176
  14.1578        200
  14.1763        164
  14.1949        173
  14.2135        179
  14.2321        163
  14.2506        164
  14.2692        166
  14.2878        183
  14.3064        164
  14.3250        195
  14.3435        181
  14.3621        187
  14.3807        174
  14.3993        165
  14.4178        165
  14.4364        181
  14.4550        161
  14.4736        186
  14.4921        181
  14.5107        188
  14.5293        173
  14.5479        170
  14.5664        178
  14.5850        177
  14.6036        165
  14.6222        175
  14.6407        172
  14.6593        173
  14.6779        189
  14.6965        173
  14.7150        183
  14.7336        153
  14.7522        192
  14.7708        158
  14.7893        166
  14.8079        167
  14.8265        171
  14.8451        148
  14.8636        148
  14.8822        178
  14.9008        177
  14.9194        187
  14.9379        158
  14.9565        160
  14.9751        158
  14.9937        181
  15.0122        166
  15.0308        142
  15.0494        183
  15.0680        153
  15.0866        140
  15.1051        163
  15.1237        172
  15.1423        183
  15.1609        179
  15.1794        169
  15.1980        153
  15.2166        162
  15.2352        174
  15.2537        177
  15.2723        164
  15.2909        189
  15.3095        169
  15.3280        165
  15.3466        158
  15.3652        182
  15.3838        151
  15.4023        156
  15.4209        167
  15.4395        158
  15.4581        185
  15.4766        161
  15.4952        178
  15.5138        151
  15.5324        174
  15.5509        162
  15.5695        162
  15.5881        166
  15.6067        175
  15.6252        155
  15.6438        144
  15.6624        169
  15.6810        171
  15.6995        184
  15.7181        155
  15.7367        163
  15.7553        168
  15.7738        164
  15.7924        184
  15.8110        155
  15.8296        170
  15.8482        150
  15.8667        150
  15.8853        157
  15.9039        184
  15.9225        189
  15.9410        171
  15.9596        155
  15.9782        168
  15.9968        190
  16.0153        151
  16.0339        170
  16.0525        172
  16.0711        183
  16.0896        183
  16.1082        174
  16.1268        152
  16.1454        153
  16.1639        146
  16.1825        160
  16.2011        151
  16.2197        170
  16.2382        176
  16.2568        166
  16.2754        166
  16.2940        143
  16.3125        182
  16.3311        161
  16.3497        158
  16.3683        165
  16.3868        163
  16.4054        155
  16.4240        177
  16.4426        176
  16.4611        154
  16.4797        151
  16.4983        167
  16.5169        148
  16.5354        154
  16.5540        156
  16.5726        180
  16.5912        143
  16.6097        177
  16.6283        155
  16.6469        184
  16.6655        179
  16.6841        162
  16.7026        170
  16.7212        171
  16.7398        151
  16.7584        142
  16.7769        153
  16.7955        170
  16.8141        174
  16.8327        162
  16.8512        141
  16.8698        165
  16.8884        160
  16.9070        159
  16.9255        165
  16.9441        174
  16.9627        177
  16.9813        158
  16.9998        170
  17.0184        122
  17.0370        153
  17.0556        175
  17.0741        178
  17.0927        150
  17.1113        188
  17.1299        169
  17.1484        159
  17.1670        149
  17.1856        173
  17.2042        171
  17.2227        160
  17.2413        178
  17.2599        173
  17.2785        176
  17.2970        184
  17.3156        163
  17.3342        180
  17.3528        175
  17.3713        172
  17.3899        160
  17.4085        152
  17.4271        189
  17.4457        165
  17.4642        159
  17.4828        161
  17.5014        159
  17.5200        182
  17.5385        159
  17.5571        160
  17.5757        159
  17.5943        158
  17.6128        187
  17.6314        155
  17.6500        183
  17.6686        159
  17.6871        177
  17.7057        197
  17.7243        181
  17.7429        173
  17.7614        161
  17.7800        158
  17.7986        151
  17.8172        173
  17.8357        167
  17.8543        172
  17.8729        190
  17.8915        167
  17.9100        165
  17.9286        178
  17.9472        145
  17.9658        178
  17.9843        165
  18.0029        143
  18.0215        160
  18.0401        171
  18.0586        162
  18.0772        158
  18.0958        155
  18.1144        142
  18.1329        156
  18.1515        175
  18.1701        153
  18.1887        159
  18.2073        164
  18.2258        182
  18.2444        157
  18.2630        157
  18.2816        164
  18.3001        181
  18.3187        155
  18.3373        169
  18.3559        177
  18.3744        172
  18.3930        159
  18.4116        160
  18.4302        152
  18.4487        158
  18.4673        172
  18.4859        161
  18.5045        152
  18.5230        178
  18.5416        188
  18.5602        161
  18.5788        171
  18.5973        176
  18.6159        175
  18.6345        173
  18.6531        157
  18.6716        159
  18.6902        162
  18.7088        173
  18.7274        173
  18.7459        184
  18.7645        170
  18.7831        172
  18.8017        193
  18.8202        179
  18.8388        189
  18.8574        175
  18.8760        171
  18.8945        138
  18.9131        157
  18.9317        168
  18.9503        166
  18.9689        164
  18.9874        178
  19.0060        156
  19.0246        189
  19.0432        151
  19.0617        174
  19.0803        172
  19.0989        176
  19.1175        160
  19.1360        171
  19.1546        167
  19.1732        172
  19.1918        189
  19.2103        171
  19.2289        174
  19.2475        169
  19.2661        160
  19.2846        162
  19.3032        159
  19.3218        184
  19.3404        149
  19.3589        178
  19.3775        181
  19.3961        164
  19.4147        159
  19.4332        185
  19.4518        176
  19.4704        158
  19.4890        196
  19.5075        138
  19.5261        178
  19.5447        170
  19.5633        191
  19.5818        177
  19.6004        154
  19.6190        168
  19.6376        179
  19.6561        175
  19.6747        161
  19.6933        181
  19.7119        199
  19.7305        179
  19.7490        170
  19.7676        165
  19.7862        173
  19.8048        186
  19.8233        187
  19.8419        170
  19.8605        157
  19.8791        184
  19.8976        179
  19.9162        174
  19.9348        160
  19.9534        169
  19.9719        182
  19.9905        175
  20.0091        177
  20.0277        165
  20.0462        204
  20.0648        163
  20.0834        187
  20.1020        181
  20.1205        188
  20.1391        157
  20.1577        168
  20.1763        181
  20.1948        175
  20.2134        177
  20.2320        163
  20.2506        172
  20.2691        204
  20.2877        181
  20.3063        192
  20.3249        185
  20.3434        177
  20.3620        180
  20.3806        189
  20.3992        178
  20.4177        181
  20.4363        185
  20.4549        190
  20.4735        204
  20.4921        177
  20.5106        198
  20.5292        182
  20.5478        188
  20.5664        165
  20.5849        191
  20.6035        158
  20.6221        180
  20.6407        186
  20.6592        158
  20.6778        191
  20.6964        195
  20.7150        208
  20.7335        182
  20.7521        193
  20.7707        195
  20.7893        191
  20.8078        198
  20.8264        207
  20.8450        163
  20.8636        179
  20.8821        197
  20.9007        199
  20.9193        200
  20.9379        210
  20.9564        195
  20.9750        219
  20.9936        189
  21.0122        209
  21.0307        185
  21.0493        207
  21.0679        210
  21.0865        210
  21.1050        204
  21.1236        205
  21.1422        230
  21.1608        246
  21.1793        295
  21.1979        307
  21.2165        317
  21.2351        334
  21.2537        321
  21.2722        310
  21.2908        324
  21.3094        318
  21.3280        389
  21.3465        543
  21.3651        576
  21.3837        443
  21.4023        391
  21.4208        323
  21.4394        295
  21.4580        220
  21.4766        219
  21.4951        208
  21.5137        203
  21.5323        244
  21.5509        193
  21.5694        212
  21.5880        208
  21.6066        202
  21.6252        213
  21.6437        196
  21.6623        196
  21.6809        213
  21.6995        207
  21.7180        204
  21.7366        182
  21.7552        180
  21.7738        194
  21.7923        209
  21.8109        231
  21.8295        191
  21.8481        216
  21.8666        201
  21.8852        201
  21.9038        172
  21.9224        184
  21.9409        180
  21.9595        203
  21.9781        201
  21.9967        201
  22.0152        196
  22.0338        212
  22.0524        165
  22.0710        194
  22.0896        199
  22.1081        222
  22.1267        189
  22.1453        192
  22.1639        200
  22.1824        224
  22.2010        183
  22.2196        182
  22.2382        196
  22.2567        201
  22.2753        217
  22.2939        181
  22.3125        182
  22.3310        209
  22.3496        191
  22.3682        203
  22.3868        197
  22.4053        194
  22.4239        190
  22.4425        179
  22.4611        183
  22.4796        179
  22.4982        209
  22.5168        193
  22.5354        204
  22.5539        185
  22.5725        182
  22.5911        220
  22.6097        175
  22.6282        208
  22.6468        206
  22.6654        208
  22.6840        179
  22.7025        194
  22.7211        196
  22.7397        193
  22.7583        207
  22.7768        207
  22.7954        200
  22.8140        205
  22.8326        202
  22.8512        208
  22.8697        199
  22.8883        208
  22.9069        191
  22.9255        221
  22.9440        174
  22.9626        219
  22.9812        208
  22.9998        204
  23.0183        200
  23.0369        189
  23.0555        210
  23.0741        222
  23.0926        211
  23.1112        181
  23.1298        176
  23.1484        226
  23.1669        212
  23.1855        181
  23.2041        218
  23.2227        181
  23.2412        229
  23.2598        209
  23.2784        223
  23.2970        223
  23.3155        204
  23.3341        220
  23.3527        206
  23.3713        210
  23.3898        204
  23.4084        205
  23.4270        206
  23.4456        200
  23.4641        206
  23.4827        198
  23.5013        207
  23.5199        199
  23.5384        217
  23.5570        246
  23.5756        202
  23.5942        204
  23.6128        205
  23.6313        219
  23.6499        209
  23.6685        192
  23.6871        197
  23.7056        197
  23.7242        221
  23.7428        209
  23.7614        197
  23.7799        236
  23.7985        200
  23.8171        223
  23.8357        199
  23.8542        194
  23.8728        199
  23.8914        211
  23.9100        215
  23.9285        201
  23.9471        211
  23.9657        193
  23.9843        204
  24.0028        223
  24.0214        212
  24.0400        213
  24.0586        204
  24.0771        226
  24.0957        204
  24.1143        203
  24.1329        233
  24.1514        219
  24.1700        202
  24.1886        204
  24.2072        221
  24.2257        236
  24.2443        250
  24.2629        224
  24.2815        259
  24.3000        232
  24.3186        217
  24.3372        212
  24.3558        211
  24.3744        223
  24.3929        211
  24.4115        200
  24.4301        227
  24.4487        224
  24.4672        209
  24.4858        193
  24.5044        199
  24.5230        207
  24.5415        186
  24.5601        208
  24.5787        211
  24.5973        208
  24.6158        194
  24.6344        213
  24.6530        203
  24.6716        223
  24.6901        201
  24.7087        178
  24.7273        202
  24.7459        235
  24.7644        215
  24.7830        184
  24.8016        213
  24.8202        221
  24.8387        181
  24.8573        203
  24.8759        214
  24.8945        215
  24.9130        205
  24.9316        220
  24.9502        207
  24.9688        199
  24.9873        215
  25.0059        199
  25.0245        185
  25.0431        223
  25.0616        185
  25.0802        195
  25.0988        184
  25.1174        187
  25.1360        201
  25.1545        176
  25.1731        174
  25.1917        215
  25.2103        193
  25.2288        185
  25.2474        209
  25.2660        185
  25.2846        232
  25.3031        187
  25.3217        209
  25.3403        194
  25.3589        204
  25.3774        206
  25.3960        204
  25.4146        206
  25.4332        197
  25.4517        205
  25.4703        207
  25.4889        212
  25.5075        188
  25.5260        187
  25.5446        170
  25.5632        209
  25.5818        205
  25.6003        190
  25.6189        189
  25.6375        188
  25.6561        168
  25.6746        181
  25.6932        195
  25.7118        223
  25.7304        205
  25.7489        203
  25.7675        195
  25.7861        213
  25.8047        215
  25.8232        218
  25.8418        182
  25.8604        211
  25.8790        218
  25.8976        206
  25.9161        220
  25.9347        156
  25.9533        175
  25.9719        178
  25.9904        188
  26.0090        182
  26.0276        183
  26.0462        194
  26.0647        198
  26.0833        188
  26.1019        176
  26.1205        190
  26.1390        183
  26.1576        198
  26.1762        172
  26.1948        187
  26.2133        153
  26.2319        180
  26.2505        201
  26.2691        197
  26.2876        181
  26.3062        193
  26.3248        194
  26.3434        230
  26.3619        189
  26.3805        189
  26.3991        194
  26.4177        208
  26.4362        199
  26.4548        169
  26.4734        179
  26.4920        182
  26.5105        183
  26.5291        196
  26.5477        209
  26.5663        186
  26.5848        207
  26.6034        189
  26.6220        213
  26.6406        188
  26.6591        206
  26.6777        176
  26.6963        193
  26.7149        212
  26.7335        184
  26.7520        200
  26.7706        200
  26.7892        207
  26.8078        214
  26.8263        178
  26.8449        211
  26.8635        208
  26.8821        177
  26.9006        208
  26.9192        177
  26.9378        220
  26.9564        192
  26.9749        178
  26.9935        188
  27.0121        170
  27.0307        195
  27.0492        192
  27.0678        182
  27.0864        219
  27.1050        183
  27.1235        194
  27.1421        198
  27.1607        187
  27.1793        200
  27.1978        263
  27.2164        231
  27.2350        240
  27.2536        239
  27.2721        227
  27.2907        195
  27.3093        199
  27.3279        175
  27.3464        197
  27.3650        198
  27.3836        193
  27.4022        179
  27.4207        184
  27.4393        204
  27.4579        168
  27.4765        181
  27.4951        180
  27.5136        189
  27.5322        213
  27.5508        183
  27.5694        164
  27.5879        197
  27.6065        169
  27.6251        156
  27.6437        182
  27.6622        161
  27.6808        196
  27.6994        192
  27.7180        171
  27.7365        176
  27.7551        175
  27.7737        178
  27.7923        193
  27.8108        187
  27.8294        202
  27.8480        157
  27.8666        178
  27.8851        192
  27.9037        178
  27.9223        170
  27.9409        163
  27.9594        184
  27.9780        175
  27.9966        193
  28.0152        168
  28.0337        195
  28.0523        162
  28.0709        175
  28.0895        175
  28.1080        179
  28.1266        176
  28.1452        162
  28.1638        174
  28.1823        182
  28.2009        156
  28.2195        175
  28.2381        182
  28.2567        173
  28.2752        160
  28.2938        168
  28.3124        160
  28.3310        177
  28.3495        173
  28.3681        158
  28.3867        189
  28.4053        165
  28.4238        173
  28.4424        204
  28.4610        177
  28.4796        162
  28.4981        190
  28.5167        170
  28.5353        157
  28.5539        181
  28.5724        159
  28.5910        163
  28.6096        181
  28.6282        164
  28.6467        158
  28.6653        152
  28.6839        177
  28.7025        196
  28.7210        166
  28.7396        199
  28.7582        150
  28.7768        177
  28.7953        162
  28.8139        175
  28.8325        168
  28.8511        177
  28.8696        172
  28.8882        178
  28.9068        176
  28.9254        170
  28.9439        170
  28.9625        170
  28.9811        190
  28.9997        151
  29.0183        153
  29.0368        153
  29.0554        158
  29.0740        162
  29.0926        153
  29.1111        153
  29.1297        177
  29.1483        155
  29.1669        187
  29.1854        169
  29.2040        168
  29.2226        160
  29.2412        153
  29.2597        132
  29.2783        156
  29.2969        160
  29.3155        155
  29.3340        156
  29.3526        145
  29.3712        169
  29.3898        170
  29.4083        166
  29.4269        168
  29.4455        164
  29.4641        165
  29.4826        182
  29.5012        184
  29.5198        149
  29.5384        136
  29.5569        178
  29.5755        176
  29.5941        171
  29.6127        145
  29.6312        167
  29.6498        159
  29.6684        160
  29.6870        168
  29.7055        149
  29.7241        169
  29.7427        176
  29.7613        138
  29.7799        141
  29.7984        163
  29.8170        177
  29.8356        162
  29.8542        150
  29.8727        173
  29.8913        151
  29.9099        155
  29.9285        156
  29.9470        171
  29.9656        173
  29.9842        171
  30.0028        138
  30.0213        141
  30.0399        135
  30.0585        146
  30.0771        160
  30.0956        169
  30.1142        181
  30.1328        146
  30.1514        151
  30.1699        144
  30.1885        131
  30.2071        164
  30.2257        161
  30.2442        171
  30.2628        175
  30.2814        162
  30.3000        176
  30.3185        179
  30.3371        229
  30.3557        271
  30.3743        290
  30.3928        347
  30.4114        268
  30.4300        241
  30.4486        242
  30.4671        276
  30.4857        229
  30.5043        191
  30.5229        160
  30.5415        158
  30.5600        159
  30.5786        160
  30.5972        129
  30.6158        164
  30.6343        164
  30.6529        153
  30.6715        147
  30.6901        160
  30.7086        144
  30.7272        146
  30.7458        159
  30.7644        167
  30.7829        169
  30.8015        167
  30.8201        141
  30.8387        164
  30.8572        164
  30.8758        136
  30.8944        143
  30.9130        141
  30.9315        139
  30.9501        147
  30.9687        143
  30.9873        146
  31.0058        155
  31.0244        135
  31.0430        175
  31.0616        145
  31.0801        135
  31.0987        140
  31.1173        147
  31.1359        145
  31.1544        150
  31.1730        138
  31.1916        140
  31.2102        146
  31.2287        127
  31.2473        153
  31.2659        138
  31.2845        141
  31.3030        144
  31.3216        132
  31.3402        141
  31.3588        152
  31.3774        146
  31.3959        146
  31.4145        149
  31.4331        139
  31.4517        138
  31.4702        135
  31.4888        146
  31.5074        125
  31.5260        109
  31.5445        129
  31.5631        144
  31.5817        155
  31.6003        130
  31.6188        165
  31.6374        132
  31.6560        148
  31.6746        158
  31.6931        120
  31.7117        138
  31.7303        149
  31.7489        125
  31.7674        126
  31.7860        129
  31.8046        120
  31.8232        146
  31.8417        116
  31.8603        134
  31.8789        130
  31.8975        127
  31.9160        126
  31.9346        150
  31.9532        132
  31.9718        141
  31.9903        139
  32.0089        136
  32.0275        129
  32.0461        119
  32.0646        132
  32.0832        149
  32.1018        140
  32.1204        116
  32.1390        137
  32.1575        151
  32.1761        137
  32.1947        145
  32.2133        152
  32.2318        124
  32.2504        143
  32.2690        155
  32.2876        130
  32.3061        146
  32.3247        131
  32.3433        117
  32.3619        128
  32.3804        142
  32.3990        126
  32.4176        126
  32.4362        151
  32.4547        123
  32.4733        150
  32.4919        148
  32.5105        164
  32.5290        148
  32.5476        128
  32.5662        149
  32.5848        146
  32.6033        136
  32.6219        154
  32.6405        128
  32.6591        146
  32.6776        122
  32.6962        163
  32.7148        132
  32.7334        115
  32.7519        115
  32.7705        131
  32.7891        128
  32.8077        118
  32.8262        137
  32.8448        132
  32.8634        113
  32.8820        119
  32.9006        145
  32.9191        129
  32.9377        113
  32.9563        120
  32.9749        135
  32.9934        151
  33.0120        107
  33.0306        132
  33.0492        123
  33.0677        127
  33.0863        109
  33.1049        112
  33.1235        125
  33.1420        113
  33.1606        133
  33.1792        138
  33.1978        132
  33.2163        126
  33.2349        123
  33.2535        137
  33.2721        115
  33.2906        129
  33.3092        113
  33.3278        146
  33.3464        106
  33.3649        123
  33.3835        140
  33.4021        108
  33.4207        135
  33.4392        121
  33.4578        115
  33.4764        126
  33.4950        102
  33.5135        133
  33.5321        118
  33.5507        121
  33.5693        115
  33.5878        116
  33.6064        108
  33.6250        113
  33.6436        109
  33.6622        110
  33.6807        120
  33.6993        127
  33.7179        137
  33.7365        117
  33.7550        117
  33.7736        130
  33.7922        145
  33.8108        113
  33.8293        112
  33.8479        108
  33.8665        121
  33.8851        118
  33.9036        109
  33.9222        110
  33.9408        106
  33.9594        116
  33.9779        112
  33.9965        106
  34.0151        114
  34.0337        130
  34.0522        117
  34.0708        113
  34.0894        119
  34.1080         99
  34.1265        106
  34.1451         95
  34.1637        117
  34.1823        109
  34.2008        123
  34.2194        119
  34.2380        123
  34.2566        116
  34.2751        127
  34.2937        117
  34.3123        115
  34.3309        120
  34.3494        111
  34.3680        107
  34.3866        100
  34.4052         99
  34.4238        118
  34.4423        114
  34.4609        123
  34.4795        137
  34.4981        124
  34.5166        107
  34.5352        129
  34.5538        121
  34.5724        129
  34.5909        115
  34.6095        142
  34.6281        133
  34.6467        131
  34.6652        136
  34.6838        127
  34.7024        150
  34.7210        146
  34.7395        146
  34.7581        172
  34.7767        172
  34.7953        148
  34.8138        137
  34.8324        134
  34.8510        140
  34.8696        135
  34.8881        134
  34.9067        130
  34.9253        111
  34.9439        116
  34.9624         95
  34.9810        120
  34.9996        117
  35.0182        116
  35.0367        120
  35.0553        112
  35.0739        104
  35.0925        116
  35.1110        116
  35.1296        109
  35.1482        122
  35.1668        122
  35.1854         98
  35.2039        109
  35.2225        101
  35.2411         95
  35.2597         93
  35.2782        100
  35.2968         83
  35.3154        104
  35.3340         98
  35.3525        115
  35.3711         96
  35.3897         92
  35.4083        111
  35.4268        110
  35.4454        112
  35.4640        117
  35.4826         92
  35.5011        100
  35.5197        110
  35.5383        116
  35.5569        105
  35.5754        107
  35.5940         92
  35.6126        106
  35.6312        107
  35.6497        106
  35.6683         98
  35.6869        106
  35.7055        107
  35.7240         88
  35.7426         98
  35.7612         79
  35.7798         94
  35.7983        117
  35.8169        100
  35.8355        101
  35.8541         94
  35.8726        106
  35.8912        104
  35.9098        103
  35.9284        100
  35.9469         93
  35.9655         90
  35.9841        110
  36.0027         91
  36.0213        134
  36.0398        113
  36.0584        102
  36.0770         99
  36.0956        104
  36.1141         84
  36.1327        110
  36.1513         90
  36.1699         87
  36.1884        109
  36.2070        104
  36.2256        102
  36.2442        103
  36.2627         87
  36.2813        103
  36.2999        104
  36.3185        104
  36.3370        102
  36.3556        118
  36.3742        101
  36.3928        103
  36.4113        103
  36.4299         81
  36.4485         88
  36.4671        102
  36.4856        116
  36.5042         99
  36.5228        109
  36.5414         83
  36.5599         97
  36.5785         90
  36.5971         84
  36.6157        104
  36.6342        101
  36.6528        102
  36.6714         99
  36.6900        104
  36.7085        106
  36.7271        111
  36.7457        100
  36.7643         87
  36.7829        106
  36.8014         94
  36.8200        101
  36.8386         91
  36.8572         79
  36.8757         85
  36.8943         77
  36.9129         92
  36.9315         92
  36.9500         86
  36.9686         80
  36.9872        104
  37.0058         89
  37.0243         93
  37.0429         88
  37.0615         88
  37.0801         80
  37.0986        103
  37.1172         89
  37.1358         74
  37.1544         94
  37.1729         82
  37.1915         92
  37.2101         98
  37.2287         91
  37.2472         79
  37.2658         89
  37.2844         83
  37.3030         90
  37.3215        111
  37.3401         94
  37.3587        122
  37.3773         95
  37.3958        122
  37.4144        129
  37.4330        141
  37.4516        167
  37.4701        120
  37.4887        126
  37.5073        110
  37.5259        127
  37.5445        111
  37.5630        100
  37.5816         94
  37.6002        102
  37.6188         76
  37.6373        100
  37.6559        101
  37.6745         84
  37.6931         73
  37.7116        105
  37.7302        103
  37.7488         82
  37.7674        101
  37.7859         92
  37.8045         69
  37.8231         88
  37.8417         95
  37.8602         91
  37.8788         78
  37.8974         91
  37.9160         83
  37.9345         82
  37.9531         88
  37.9717         87
  37.9903         71
  38.0088         99
  38.0274         84
  38.0460         80
  38.0646         83
  38.0831         78
  38.1017         81
  38.1203         81
  38.1389         80
  38.1574         93
  38.1760         80
  38.1946         90
  38.2132         89
  38.2317        108
  38.2503         80
  38.2689         86
  38.2875         84
  38.3061         78
  38.3246         91
  38.3432        100
  38.3618         94
  38.3804         81
  38.3989         92
  38.4175         81
  38.4361         86
  38.4547        102
  38.4732         79
  38.4918         84
  38.5104         89
  38.5290        102
  38.5475         85
  38.5661         61
  38.5847         87
  38.6033         79
  38.6218         78
  38.6404         82
  38.6590         86
  38.6776         95
  38.6961         86
  38.7147         89
  38.7333         90
  38.7519         81
  38.7704         82
  38.7890         84
  38.8076         91
  38.8262         91
  38.8447         86
  38.8633         97
  38.8819         76
  38.9005         93
  38.9190        105
  38.9376         94
  38.9562         87
  38.9748         76
  38.9933         76
  39.0119         82
  39.0305         78
  39.0491         80
  39.0677         96
  39.0862         87
  39.1048         93
  39.1234         81
  39.1420         90
  39.1605         88
  39.1791        101
  39.1977         86
  39.2163         80
  39.2348         90
  39.2534         70
  39.2720         86
  39.2906         88
  39.3091         82
  39.3277         92
  39.3463         82
  39.3649         85
  39.3834         86
  39.4020         61
  39.4206         85
  39.4392         88
  39.4577         85
  39.4763         89
  39.4949         90
  39.5135         91
  39.5320         74
  39.5506         94
  39.5692         73
  39.5878         72
  39.6063         89
  39.6249         70
  39.6435         72
  39.6621         74
  39.6806         75
  39.6992         77
  39.7178         73
  39.7364         82
  39.7549         80
  39.7735         88
  39.7921         83
  39.8107         78
  39.8293         83
  39.8478         88
  39.8664         83
  39.8850         73
  39.9036         65
  39.9221         88
  39.9407         74
  39.9593         86
  39.9779         76
  39.9964         80
  40.0150         82
  40.0336         82
  40.0522         79
  40.0707         84
  40.0893         82
  40.1079         76
  40.1265         73
  40.1450         84
  40.1636         82
  40.1822         71
  40.2008         87
  40.2193         77
  40.2379         86
  40.2565         96
  40.2751         81
  40.2936         86
  40.3122         76
  40.3308         65
  40.3494         67
  40.3679         76
  40.3865         82
  40.4051         88
  40.4237         94
  40.4422         79
  40.4608         73
  40.4794         76
  40.4980         91
  40.5165         86
  40.5351         74
  40.5537         80
  40.5723         75
  40.5908         67
  40.6094         74
  40.6280         90
  40.6466         79
  40.6652         85
  40.6837         82
  40.7023         69
  40.7209         64
  40.7395         67
  40.7580         87
  40.7766         76
  40.7952         72
  40.8138         69
  40.8323         81
  40.8509         89
  40.8695         81
  40.8881         76
  40.9066         70
  40.9252        102
  40.9438         95
  40.9624         86
  40.9809         79
  40.9995         79
  41.0181         83
  41.0367         86
  41.0552         79
  41.0738         77
  41.0924         80
  41.1110         83
  41.1295         85
  41.1481         77
  41.1667         70
  41.1853         69
  41.2038         99
  41.2224         80
  41.2410         71
  41.2596         77
  41.2781         66
  41.2967         71
  41.3153         87
  41.3339         76
  41.3524         92
  41.3710         77
  41.3896         66
  41.4082         79
  41.4268         82
  41.4453         78
  41.4639         65
  41.4825         90
  41.5011         76
  41.5196         74
  41.5382         71
  41.5568         82
  41.5754         68
  41.5939         96
  41.6125         99
  41.6311         70
  41.6497         81
  41.6682         89
  41.6868         90
  41.7054         74
  41.7240         70
  41.7425         89
  41.7611         79
  41.7797         76
  41.7983         68
  41.8168         78
  41.8354         75
  41.8540         68
  41.8726         75
  41.8911         67
  41.9097         75
  41.9283         58
  41.9469         75
  41.9654         93
  41.9840         83
  42.0026         65
  42.0212         70
  42.0397         89
  42.0583         62
  42.0769         89
  42.0955         83
  42.1140         70
  42.1326         71
  42.1512         91
  42.1698         76
  42.1884         89
  42.2069         75
  42.2255         72
  42.2441         76
  42.2627         71
  42.2812         67
  42.2998         71
  42.3184         65
  42.3370         66
  42.3555         84
  42.3741         89
  42.3927         87
  42.4113         72
  42.4298         79
  42.4484         73
  42.4670         82
  42.4856         72
  42.5041         77
  42.5227         78
  42.5413         69
  42.5599         76
  42.5784         72
  42.5970         94
  42.6156         78
  42.6342         89
  42.6527         66
  42.6713         70
  42.6899         65
  42.7085         70
  42.7270         82
  42.7456         72
  42.7642         73
  42.7828         76
  42.8013         76
  42.8199         71
  42.8385         93
  42.8571         74
  42.8756         72
  42.8942         75
  42.9128         67
  42.9314         74
  42.9500         85
  42.9685         77
  42.9871         80
  43.0057         82
  43.0243         91
  43.0428         82
  43.0614         80
  43.0800         83
  43.0986         83
  43.1171         74
  43.1357         77
  43.1543         99
  43.1729         82
  43.1914         83
  43.2100         88
  43.2286         96
  43.2472         96
  43.2657         90
  43.2843        106
  43.3029         81
  43.3215         85
  43.3400         85
  43.3586         79
  43.3772         89
  43.3958         87
  43.4143         99
  43.4329         95
  43.4515         96
  43.4701         90
  43.4886        113
  43.5072        124
  43.5258        129
  43.5444         91
  43.5629         88
  43.5815         85
  43.6001        102
  43.6187        117
  43.6372        108
  43.6558         88
  43.6744         72
  43.6930         94
  43.7116         72
  43.7301         76
  43.7487         81
  43.7673         77
  43.7859         94
  43.8044         72
  43.8230         79
  43.8416         72
  43.8602         81
  43.8787         81
  43.8973         90
  43.9159         79
  43.9345         69
  43.9530         70
  43.9716         74
  43.9902         75
  44.0088         90
  44.0273         65
  44.0459         73
  44.0645         77
  44.0831         82
  44.1016         82
  44.1202         64
  44.1388         67
  44.1574         77
  44.1759         79
  44.1945         74
  44.2131         74
  44.2317         83
  44.2502         62
  44.2688         63
  44.2874         70
  44.3060         69
  44.3245         74
  44.3431         95
  44.3617         75
  44.3803         64
  44.3988         80
  44.4174         81
  44.4360         75
  44.4546         57
  44.4732         76
  44.4917         90
  44.5103         82
  44.5289         75
  44.5475         77
  44.5660         64
  44.5846         87
  44.6032         93
  44.6218        103
  44.6403         78
  44.6589         80
  44.6775         82
  44.6961         94
  44.7146         76
  44.7332         76
  44.7518         74
  44.7704         76
  44.7889         74
  44.8075         84
  44.8261         69
  44.8447         58
  44.8632         84
  44.8818         88
  44.9004         61
  44.9190         78
  44.9375         78
  44.9561         72
  44.9747         60
  44.9933         82
  45.0118         59
  45.0304         75
  45.0490         76
  45.0676         55
  45.0861         71
  45.1047         78
  45.1233         69
  45.1419         61
  45.1604         89
  45.1790         68
  45.1976         58
  45.2162         69
  45.2347         67
  45.2533         67
  45.2719         76
  45.2905         63
  45.3091         55
  45.3276         61
  45.3462         72
  45.3648         67
  45.3834         70
  45.4019         79
  45.4205         60
  45.4391         66
  45.4577         83
  45.4762         66
  45.4948         78
  45.5134         71
  45.5320         75
  45.5505         70
  45.5691         58
  45.5877         59
  45.6063         75
  45.6248         58
  45.6434         59
  45.6620         76
  45.6806         66
  45.6991         77
  45.7177         54
  45.7363         61
  45.7549         64
  45.7734         73
  45.7920         66
  45.8106         83
  45.8292         80
  45.8477         62
  45.8663         65
  45.8849         74
  45.9035         63
  45.9220         56
  45.9406         74
  45.9592         72
  45.9778         62
  45.9963         68
  46.0149         74
  46.0335         65
  46.0521         58
  46.0707         60
  46.0892         65
  46.1078         65
  46.1264         61
  46.1450         60
  46.1635         70
  46.1821         59
  46.2007         73
  46.2193         75
  46.2378         71
  46.2564         60
  46.2750         63
  46.2936         71
  46.3121         80
  46.3307         71
  46.3493         71
  46.3679         74
  46.3864         65
  46.4050         65
  46.4236         42
  46.4422         60
  46.4607         80
  46.4793         62
  46.4979         70
  46.5165         69
  46.5350         70
  46.5536         79
  46.5722         64
  46.5908         81
  46.6093         69
  46.6279         61
  46.6465         68
  46.6651         64
  46.6836         73
  46.7022         73
  46.7208         63
  46.7394         60
  46.7579         59
  46.7765         67
  46.7951         76
  46.8137         57
  46.8323         54
  46.8508         75
  46.8694         52
  46.8880         71
  46.9066         79
  46.9251         64
  46.9437         62
  46.9623         70
  46.9809         58
  46.9994         55
  47.0180         70
  47.0366         55
  47.0552         70
  47.0737         78
  47.0923         66
  47.1109         56
  47.1295         61
  47.1480         64
  47.1666         66
  47.1852         54
  47.2038         61
  47.2223         53
  47.2409         77
  47.2595         69
  47.2781         68
  47.2966         68
  47.3152         66
  47.3338         55
  47.3524         78
  47.3709         72
  47.3895         63
  47.4081         58
  47.4267         68
  47.4452         67
  47.4638         79
  47.4824         64
  47.5010         56
  47.5195         56
  47.5381         66
  47.5567         72
  47.5753         74
  47.5939         58
  47.6124         66
  47.6310         70
  47.6496         76
  47.6682         61
  47.6867         58
  47.7053         62
  47.7239         57
  47.7425         69
  47.7610         62
  47.7796         61
  47.7982         77
  47.8168         59
  47.8353         53
  47.8539         65
  47.8725         67
  47.8911         59
  47.9096         61
  47.9282         56
  47.9468         66
  47.9654         66
  47.9839         53
  48.0025         55
  48.0211         51
  48.0397         81
  48.0582         55
  48.0768         59
  48.0954         63
  48.1140         58
  48.1325         63
  48.1511         62
  48.1697         66
  48.1883         52
  48.2068         61
  48.2254         64
  48.2440         78
  48.2626         67
  48.2811         77
  48.2997         78
  48.3183         62
  48.3369         67
  48.3555         67
  48.3740         50
  48.3926         71
  48.4112         83
  48.4298         66
  48.4483         77
  48.4669         65
  48.4855         55
  48.5041         73
  48.5226         70
  48.5412         62
  48.5598         60
  48.5784         70
  48.5969         82
  48.6155         67
  48.6341         54
  48.6527         72
  48.6712         57
  48.6898         62
  48.7084         55
  48.7270         66
  48.7455         58
  48.7641         80
  48.7827         65
  48.8013         74
  48.8198         68
  48.8384         70
  48.8570         56
  48.8756         80
  48.8941         81
  48.9127         73
  48.9313         96
  48.9499        137
  48.9684        111
  48.9870        103
  49.0056         82
  49.0242         77
  49.0427         81
  49.0613         78
  49.0799        102
  49.0985        107
  49.1171         92
  49.1356         65
  49.1542         66
  49.1728         66
  49.1914         62
  49.2099         76
  49.2285         66
  49.2471         72
  49.2657         62
  49.2842         68
  49.3028         77
  49.3214         64
  49.3400         57
  49.3585         66
  49.3771         56
  49.3957         65
  49.4143         68
  49.4328         60
  49.4514         81
  49.4700         71
  49.4886         56
  49.5071         65
  49.5257         72
  49.5443         52
  49.5629         55
  49.5814         60
  49.6000         56
  49.6186         39
  49.6372         53
  49.6557         66
  49.6743         60
  49.6929         55
  49.7115         70
  49.7300         61
  49.7486         70
  49.7672         49
  49.7858         58
  49.8043         52
  49.8229         70
  49.8415         79
  49.8601         71
  49.8786         69
  49.8972         44
  49.9158         68
  49.9344         40
  49.9530         68
  49.9715         61
  49.9901         69
  50.0087         55
  50.0273         86
  50.0458         66
  50.0644         61
  50.0830         52
  50.1016         65
  50.1201         66
  50.1387         60
  50.1573         61
  50.1759         67
  50.1944         52
  50.2130         54
  50.2316         79
  50.2502         56
  50.2687         54
  50.2873         59
  50.3059         63
  50.3245         61
  50.3430         59
  50.3616         63
  50.3802         62
  50.3988         68
  50.4173         60
  50.4359         66
  50.4545         53
  50.4731         68
  50.4916         54
  50.5102         59
  50.5288         60
  50.5474         52
  50.5659         59
  50.5845         51
  50.6031         70
  50.6217         61
  50.6402         54
  50.6588         51
  50.6774         63
  50.6960         79
  50.7146         70
  50.7331         56
  50.7517         57
  50.7703         60
  50.7889         67
  50.8074         64
  50.8260         58
  50.8446         58
  50.8632         70
  50.8817         59
  50.9003         54
  50.9189         62
  50.9375         76
  50.9560         64
  50.9746         56
  50.9932         61
  51.0118         51
  51.0303         61
  51.0489         48
  51.0675         62
  51.0861         50
  51.1046         62
  51.1232         56
  51.1418         65
  51.1604         67
  51.1789         61
  51.1975         60
  51.2161         45
  51.2347         53
  51.2532         47
  51.2718         57
  51.2904         58
  51.3090         66
  51.3275         63
  51.3461         62
  51.3647         69
  51.3833         72
  51.4018         73
  51.4204         73
  51.4390         60
  51.4576         70
  51.4762         64
  51.4947         66
  51.5133         59
  51.5319         65
  51.5505         69
  51.5690         67
  51.5876         71
  51.6062         64
  51.6248         73
  51.6433         54
  51.6619         70
  51.6805         62
  51.6991         62
  51.7176         63
  51.7362         70
  51.7548         71
  51.7734         46
  51.7919         63
  51.8105         68
  51.8291         78
  51.8477         69
  51.8662         72
  51.8848         72
  51.9034         57
  51.9220         60
  51.9405         67
  51.9591         72
  51.9777         62
  51.9963         60
  52.0148         87
  52.0334         71
  52.0520         80
  52.0706         54
  52.0891         55
  52.1077         54
  52.1263         66
  52.1449         51
  52.1634         58
  52.1820         54
  52.2006         58
  52.2192         61
  52.2378         71
  52.2563         43
  52.2749         59
  52.2935         65
  52.3121         62
  52.3306         46
  52.3492         45
  52.3678         61
  52.3864         65
  52.4049         53
  52.4235         67
  52.4421         53
  52.4607         66
  52.4792         58
  52.4978         65
  52.5164         62
  52.5350         70
  52.5535         63
  52.5721         53
  52.5907         56
  52.6093         57
  52.6278         50
  52.6464         67
  52.6650         53
  52.6836         61
  52.7021         69
  52.7207         61
  52.7393         58
  52.7579         54
  52.7764         68
  52.7950         68
  52.8136         55
  52.8322         56
  52.8507         42
  52.8693         71
  52.8879         63
  52.9065         52
  52.9250         63
  52.9436         63
  52.9622         63
  52.9808         63
  52.9994         73
  53.0179         74
  53.0365         73
  53.0551         58
  53.0737         53
  53.0922         54
  53.1108         58
  53.1294         68
  53.1480         65
  53.1665         70
  53.1851         60
  53.2037         63
  53.2223         59
  53.2408         49
  53.2594         62
  53.2780         62
  53.2966         43
  53.3151         44
  53.3337         68
  53.3523         62
  53.3709         61
  53.3894         66
  53.4080         62
  53.4266         72
  53.4452         68
  53.4637         54
  53.4823         66
  53.5009         57
  53.5195         47
  53.5380         44
  53.5566         58
  53.5752         61
  53.5938         66
  53.6123         66
  53.6309         49
  53.6495         52
  53.6681         56
  53.6866         56
  53.7052         67
  53.7238         53
  53.7424         63
  53.7610         43
  53.7795         55
  53.7981         61
  53.8167         55
  53.8353         54
  53.8538         72
  53.8724         56
  53.8910         51
  53.9096         63
  53.9281         67
  53.9467         66
  53.9653         74
  53.9839        100
  54.0024         78
  54.0210         68
  54.0396         51
  54.0582         58
  54.0767         62
  54.0953         55
  54.1139         79
  54.1325         70
  54.1510         72
  54.1696         76
  54.1882         67
  54.2068         71
  54.2253         67
  54.2439         61
  54.2625         78
  54.2811         51
  54.2996         62
  54.3182         61
  54.3368         73
  54.3554         68
  54.3739         53
  54.3925         51
  54.4111         65
  54.4297         61
  54.4482         49
  54.4668         59
  54.4854         51
  54.5040         59
  54.5225         68
  54.5411         64
  54.5597         68
  54.5783         53
  54.5969         60
  54.6154         53
  54.6340         56
  54.6526         59
  54.6712         62
  54.6897         40
  54.7083         63
  54.7269         63
  54.7455         53
  54.7640         55
  54.7826         57
  54.8012         49
  54.8198         58
  54.8383         64
  54.8569         58
  54.8755         59
  54.8941         52
  54.9126         54
  54.9312         65
  54.9498         59
  54.9684         56
  54.9869         52
  55.0055         54
  55.0241         61
  55.0427         59
  55.0612         56
  55.0798         58
  55.0984         53
  55.1170         52
  55.1355         52
  55.1541         60
  55.1727         59
  55.1913         45
  55.2098         59
  55.2284         57
  55.2470         49
  55.2656         56
  55.2841         53
  55.3027         53
  55.3213         47
  55.3399         53
  55.3585         55
  55.3770         47
  55.3956         56
  55.4142         65
  55.4328         43
  55.4513         51
  55.4699         53
  55.4885         51
  55.5071         61
  55.5256         50
  55.5442         50
  55.5628         57
  55.5814         61
  55.5999         54
  55.6185         61
  55.6371         55
  55.6557         62
  55.6742         52
  55.6928         58
  55.7114         71
  55.7300         55
  55.7485         53
  55.7671         54
  55.7857         68
  55.8043         56
  55.8228         56
  55.8414         65
  55.8600         62
  55.8786         60
  55.8971         64
  55.9157         67
  55.9343         57
  55.9529         45
  55.9714         65
  55.9900         61
  56.0086         54
  56.0272         76
  56.0457         56
  56.0643         71
  56.0829         56
  56.1015         58
  56.1201         57
  56.1386         64
  56.1572         64
  56.1758         65
  56.1944         69
  56.2129         78
  56.2315         55
  56.2501         74
  56.2687         53
  56.2872         55
  56.3058         59
  56.3244         56
  56.3430         62
  56.3615         61
  56.3801         70
  56.3987         61
  56.4173         74
  56.4358         51
  56.4544         63
  56.4730         62
  56.4916         54
  56.5101         74
  56.5287         59
  56.5473         66
  56.5659         59
  56.5844         61
  56.6030         53
  56.6216         71
  56.6402         62
  56.6587         64
  56.6773         60
  56.6959         47
  56.7145         58
  56.7330         60
  56.7516         68
  56.7702         52
  56.7888         64
  56.8073         39
  56.8259         54
  56.8445         56
  56.8631         49
  56.8817         50
  56.9002         54
  56.9188         60
  56.9374         59
  56.9560         67
  56.9745         64
  56.9931         55
  57.0117         63
  57.0303         65
  57.0488         57
  57.0674         51
  57.0860         57
  57.1046         67
  57.1231         49
  57.1417         55
  57.1603         64
  57.1789         55
  57.1974         55
  57.2160         53
  57.2346         59
  57.2532         54
  57.2717         39
  57.2903         58
  57.3089         66
  57.3275         55
  57.3460         57
  57.3646         51
  57.3832         43
  57.4018         60
  57.4203         54
  57.4389         61
  57.4575         57
  57.4761         56
  57.4946         64
  57.5132         53
  57.5318         64
  57.5504         59
  57.5689         52
  57.5875         61
  57.6061         57
  57.6247         75
  57.6433         57
  57.6618         64
  57.6804         59
  57.6990         55
  57.7176         51
  57.7361         79
  57.7547         59
  57.7733         57
  57.7919         58
  57.8104         62
  57.8290         60
  57.8476         63
  57.8662         71
  57.8847         55
  57.9033         47
  57.9219         54
  57.9405         68
  57.9590         66
  57.9776         63
  57.9962         70
  58.0148         70
  58.0333         63
  58.0519         65
  58.0705         50
  58.0891         60
  58.1076         65
  58.1262         60
  58.1448         51
  58.1634         53
  58.1819         53
  58.2005         66
  58.2191         54
  58.2377         60
  58.2562         65
  58.2748         57
  58.2934         44
  58.3120         36
  58.3305         63
  58.3491         66
  58.3677         48
  58.3863         60
  58.4049         47
  58.4234         53
  58.4420         63
  58.4606         47
  58.4792         51
  58.4977         43
  58.5163         53
  58.5349         49
  58.5535         54
  58.5720         54
  58.5906         52
  58.6092         45
  58.6278         57
  58.6463         64
  58.6649         64
  58.6835         37
  58.7021         55
  58.7206         48
  58.7392         64
  58.7578         53
  58.7764         48
  58.7949         56
  58.8135         49
  58.8321         44
  58.8507         74
  58.8692         70
  58.8878         49
  58.9064         50
  58.9250         59
  58.9435         59
  58.9621         68
  58.9807         64
  58.9993         55
  59.0178         55
  59.0364         78
  59.0550         64
  59.0736         48
  59.0921         49
  59.1107         48
  59.1293         45
  59.1479         54
  59.1664         79
  59.1850         70
  59.2036         47
  59.2222         57
  59.2408         54
  59.2593         51
  59.2779         60
  59.2965         55
  59.3151         50
  59.3336         56
  59.3522         61
  59.3708         59
  59.3894         52
  59.4079         65
  59.4265         66
  59.4451         61
  59.4637         60
  59.4822         68
  59.5008         46
  59.5194         51
  59.5380         69
  59.5565         56
  59.5751         56
  59.5937         60
  59.6123         54
  59.6308         56
  59.6494         47
  59.6680         65
  59.6866         63
  59.7051         54
  59.7237         57
  59.7423         43
  59.7609         49
  59.7794         52
  59.7980         41
  59.8166         47
  59.8352         51
  59.8537         60
  59.8723         59
  59.8909         42
  59.9095         58
  59.9280         39
  59.9466         57
  59.9652         52
  59.9838         42
  60.0024         70
