; (content of file Y:\Sam\Apurva-07-20-2022\puck4\ML_20220718_52_SJD_4_LaB6-4min.raw)
_FILEVERSION = 3
_SAMPLE = ML_20220718_52_SJD_4_LaB6-4min
_+SAMPLE = 
_SITE = USA
_USER = Administrator
_GONIOMETER_CODE = 20
; Goniometer : D8 theta/2theta, stage : Unknown
_ATTACHMENTS_CODE = 0
_GONIOMETER_RADIUS = 200.5
_FIXED_DIVSLIT = 0.6
_FIXED_SAMPLESLIT = 0
_SOLLER_SLITS = 2
_FIXED_DETSLIT = 9.55
_MONOCHROMATOR = 0
; Incident beam monochromator : None
_SOLLER_SLITS_2 = N
_THIN_FILM = N
_BETA_FILTER = Y
_FIXED_ANTISLIT = 5.89
_ANALYZER_CODE = 0
; Received beam analyzer : None
_DATEMEASURED = "26-Jul-2022 14:09:44"
_WL_UNIT = A
_WL1 = 1.5406
_WL2 = 1.54439
_WL3 = 1.39222
_WLRATIO = 0.5
_ANODE = Cu
_V4_INF_CREATOR = XRDWizard
_V4_INF_CREATOR_VERSION = V2.9.0.22
_V4_INF_WIZARD_VERSION = V2.9.0.22
_V4_INF_WIZARD_ADDINS = V2.9.0.22
_V4_INF_WIZARD_DOCTYPE = XRD
_V4_INF_OSUSER = McQueenLab
_V4_INF_USER = Administrator
_V4_INF_SITE = USA
_V4_INF_SAMPLEID = ML_20220718_52_SJD_4_LaB6-4min

; Data for range 1
_DRIVE = COUPLED
_STEPTIME = 11.28
_STEPSIZE = 0.0185756
_STEPMODE = C
_START = 5
_THETA = 2.5
_2THETA = 5
_KHI = 0
_PHI = 0
_X = 0
_Y = 0
_Z = 0
_DETECTOR = 5
; Detector type : Unknown
_DETECTORSLIT = unkn
_AUX1 = 0
_AUX2 = 0
_AUX3 = 0
_TIMESTARTED = 15
_TEMP_RATE = -1
_TEMP_DELAY = -1
_KV = 40
_MA = 40
_RANGE_WL = 1.5406
_3DPLANE = 0
_V4_ADDITIONALDETECTOR = 257
_V4_PSD2THETA = 3.3662
_V4_PSDCHANNEL1 = 0
_V4_PSDAPERTURE = 12.68
_V4_PSDTYPE = 5
_V4_PSDFIXED = 0
_V4_COUNTERS_MASK = 4096
_V4_DRIVES_MASK = 0
_V4_ENCODERS_MASK = 0
_2THETACOUNTS = 1
; 2THETA  PSD
   5.0000        270
   5.0186        286
   5.0372        265
   5.0557        262
   5.0743        270
   5.0929        253
   5.1115        241
   5.1300        272
   5.1486        267
   5.1672        249
   5.1858        245
   5.2043        221
   5.2229        256
   5.2415        226
   5.2601        224
   5.2786        244
   5.2972        235
   5.3158        223
   5.3344        231
   5.3529        231
   5.3715        227
   5.3901        206
   5.4087        240
   5.4272        264
   5.4458        225
   5.4644        218
   5.4830        251
   5.5015        227
   5.5201        230
   5.5387        227
   5.5573        212
   5.5758        200
   5.5944        221
   5.6130        233
   5.6316        211
   5.6501        244
   5.6687        217
   5.6873        223
   5.7059        224
   5.7244        215
   5.7430        223
   5.7616        215
   5.7802        207
   5.7988        223
   5.8173        193
   5.8359        194
   5.8545        214
   5.8731        195
   5.8916        249
   5.9102        197
   5.9288        209
   5.9474        222
   5.9659        201
   5.9845        217
   6.0031        180
   6.0217        187
   6.0402        201
   6.0588        210
   6.0774        188
   6.0960        192
   6.1145        182
   6.1331        188
   6.1517        196
   6.1703        186
   6.1888        195
   6.2074        193
   6.2260        183
   6.2446        197
   6.2631        193
   6.2817        180
   6.3003        199
   6.3189        164
   6.3374        171
   6.3560        183
   6.3746        194
   6.3932        187
   6.4117        158
   6.4303        203
   6.4489        178
   6.4675        187
   6.4860        165
   6.5046        179
   6.5232        188
   6.5418        182
   6.5604        175
   6.5789        171
   6.5975        154
   6.6161        159
   6.6347        161
   6.6532        162
   6.6718        169
   6.6904        137
   6.7090        157
   6.7275        169
   6.7461        167
   6.7647        151
   6.7833        168
   6.8018        160
   6.8204        159
   6.8390        170
   6.8576        158
   6.8761        170
   6.8947        183
   6.9133        162
   6.9319        181
   6.9504        158
   6.9690        169
   6.9876        165
   7.0062        180
   7.0247        187
   7.0433        180
   7.0619        162
   7.0805        143
   7.0990        173
   7.1176        161
   7.1362        155
   7.1548        136
   7.1733        178
   7.1919        151
   7.2105        167
   7.2291        159
   7.2476        163
   7.2662        159
   7.2848        157
   7.3034        154
   7.3220        143
   7.3405        148
   7.3591        167
   7.3777        149
   7.3963        163
   7.4148        158
   7.4334        186
   7.4520        162
   7.4706        154
   7.4891        172
   7.5077        165
   7.5263        151
   7.5449        175
   7.5634        196
   7.5820        145
   7.6006        162
   7.6192        174
   7.6377        179
   7.6563        172
   7.6749        177
   7.6935        208
   7.7120        214
   7.7306        176
   7.7492        194
   7.7678        161
   7.7863        171
   7.8049        169
   7.8235        171
   7.8421        180
   7.8606        169
   7.8792        190
   7.8978        173
   7.9164        195
   7.9349        192
   7.9535        204
   7.9721        176
   7.9907        163
   8.0092        172
   8.0278        180
   8.0464        185
   8.0650        188
   8.0835        203
   8.1021        194
   8.1207        190
   8.1393        204
   8.1579        190
   8.1764        194
   8.1950        203
   8.2136        202
   8.2322        191
   8.2507        220
   8.2693        175
   8.2879        206
   8.3065        201
   8.3250        195
   8.3436        203
   8.3622        193
   8.3808        188
   8.3993        191
   8.4179        176
   8.4365        205
   8.4551        231
   8.4736        198
   8.4922        192
   8.5108        198
   8.5294        208
   8.5479        224
   8.5665        188
   8.5851        192
   8.6037        202
   8.6222        205
   8.6408        207
   8.6594        207
   8.6780        191
   8.6965        217
   8.7151        199
   8.7337        187
   8.7523        171
   8.7708        192
   8.7894        214
   8.8080        186
   8.8266        212
   8.8451        217
   8.8637        206
   8.8823        184
   8.9009        202
   8.9195        211
   8.9380        215
   8.9566        235
   8.9752        192
   8.9938        210
   9.0123        207
   9.0309        218
   9.0495        224
   9.0681        212
   9.0866        223
   9.1052        251
   9.1238        198
   9.1424        202
   9.1609        215
   9.1795        202
   9.1981        205
   9.2167        200
   9.2352        226
   9.2538        237
   9.2724        238
   9.2910        211
   9.3095        235
   9.3281        181
   9.3467        250
   9.3653        219
   9.3838        229
   9.4024        197
   9.4210        225
   9.4396        233
   9.4581        248
   9.4767        204
   9.4953        206
   9.5139        236
   9.5324        205
   9.5510        218
   9.5696        234
   9.5882        213
   9.6067        238
   9.6253        214
   9.6439        223
   9.6625        204
   9.6811        220
   9.6996        223
   9.7182        222
   9.7368        270
   9.7554        214
   9.7739        213
   9.7925        252
   9.8111        237
   9.8297        232
   9.8482        238
   9.8668        231
   9.8854        263
   9.9040        256
   9.9225        244
   9.9411        246
   9.9597        223
   9.9783        222
   9.9968        224
  10.0154        227
  10.0340        240
  10.0526        227
  10.0711        256
  10.0897        253
  10.1083        241
  10.1269        226
  10.1454        251
  10.1640        240
  10.1826        239
  10.2012        249
  10.2197        215
  10.2383        238
  10.2569        220
  10.2755        253
  10.2940        268
  10.3126        251
  10.3312        241
  10.3498        239
  10.3683        230
  10.3869        251
  10.4055        235
  10.4241        231
  10.4427        273
  10.4612        228
  10.4798        272
  10.4984        238
  10.5170        290
  10.5355        241
  10.5541        217
  10.5727        243
  10.5913        229
  10.6098        242
  10.6284        243
  10.6470        250
  10.6656        233
  10.6841        234
  10.7027        266
  10.7213        261
  10.7399        258
  10.7584        251
  10.7770        242
  10.7956        238
  10.8142        241
  10.8327        257
  10.8513        238
  10.8699        211
  10.8885        228
  10.9070        243
  10.9256        242
  10.9442        262
  10.9628        222
  10.9813        234
  10.9999        243
  11.0185        240
  11.0371        232
  11.0556        219
  11.0742        232
  11.0928        244
  11.1114        237
  11.1299        273
  11.1485        239
  11.1671        233
  11.1857        249
  11.2043        221
  11.2228        233
  11.2414        242
  11.2600        230
  11.2786        252
  11.2971        238
  11.3157        250
  11.3343        234
  11.3529        240
  11.3714        212
  11.3900        233
  11.4086        248
  11.4272        239
  11.4457        229
  11.4643        242
  11.4829        252
  11.5015        214
  11.5200        220
  11.5386        263
  11.5572        237
  11.5758        238
  11.5943        229
  11.6129        216
  11.6315        251
  11.6501        198
  11.6686        216
  11.6872        239
  11.7058        235
  11.7244        230
  11.7429        228
  11.7615        215
  11.7801        231
  11.7987        250
  11.8172        244
  11.8358        230
  11.8544        244
  11.8730        203
  11.8915        238
  11.9101        239
  11.9287        244
  11.9473        220
  11.9659        220
  11.9844        228
  12.0030        218
  12.0216        208
  12.0402        216
  12.0587        237
  12.0773        237
  12.0959        233
  12.1145        210
  12.1330        213
  12.1516        232
  12.1702        251
  12.1888        221
  12.2073        212
  12.2259        233
  12.2445        219
  12.2631        216
  12.2816        226
  12.3002        239
  12.3188        233
  12.3374        244
  12.3559        230
  12.3745        197
  12.3931        235
  12.4117        233
  12.4302        188
  12.4488        212
  12.4674        235
  12.4860        213
  12.5045        218
  12.5231        243
  12.5417        216
  12.5603        241
  12.5788        228
  12.5974        270
  12.6160        207
  12.6346        217
  12.6531        221
  12.6717        225
  12.6903        229
  12.7089        221
  12.7274        196
  12.7460        218
  12.7646        206
  12.7832        221
  12.8018        196
  12.8203        193
  12.8389        226
  12.8575        201
  12.8761        214
  12.8946        186
  12.9132        213
  12.9318        239
  12.9504        176
  12.9689        206
  12.9875        194
  13.0061        199
  13.0247        175
  13.0432        211
  13.0618        175
  13.0804        208
  13.0990        198
  13.1175        196
  13.1361        208
  13.1547        213
  13.1733        207
  13.1918        220
  13.2104        187
  13.2290        190
  13.2476        187
  13.2661        220
  13.2847        204
  13.3033        183
  13.3219        190
  13.3404        219
  13.3590        210
  13.3776        187
  13.3962        192
  13.4147        193
  13.4333        210
  13.4519        185
  13.4705        181
  13.4890        211
  13.5076        184
  13.5262        194
  13.5448        199
  13.5634        184
  13.5819        200
  13.6005        210
  13.6191        193
  13.6377        219
  13.6562        200
  13.6748        205
  13.6934        193
  13.7120        194
  13.7305        180
  13.7491        174
  13.7677        195
  13.7863        197
  13.8048        168
  13.8234        186
  13.8420        201
  13.8606        162
  13.8791        198
  13.8977        191
  13.9163        182
  13.9349        178
  13.9534        176
  13.9720        197
  13.9906        160
  14.0092        182
  14.0277        196
  14.0463        179
  14.0649        184
  14.0835        181
  14.1020        200
  14.1206        158
  14.1392        167
  14.1578        171
  14.1763        182
  14.1949        187
  14.2135        174
  14.2321        149
  14.2506        167
  14.2692        186
  14.2878        158
  14.3064        182
  14.3250        175
  14.3435        171
  14.3621        192
  14.3807        183
  14.3993        179
  14.4178        180
  14.4364        168
  14.4550        163
  14.4736        167
  14.4921        193
  14.5107        150
  14.5293        169
  14.5479        163
  14.5664        168
  14.5850        182
  14.6036        192
  14.6222        161
  14.6407        151
  14.6593        160
  14.6779        188
  14.6965        178
  14.7150        173
  14.7336        169
  14.7522        195
  14.7708        177
  14.7893        153
  14.8079        176
  14.8265        163
  14.8451        170
  14.8636        168
  14.8822        162
  14.9008        176
  14.9194        175
  14.9379        165
  14.9565        160
  14.9751        155
  14.9937        165
  15.0122        176
  15.0308        161
  15.0494        179
  15.0680        152
  15.0866        167
  15.1051        176
  15.1237        156
  15.1423        165
  15.1609        172
  15.1794        177
  15.1980        154
  15.2166        162
  15.2352        174
  15.2537        143
  15.2723        160
  15.2909        164
  15.3095        148
  15.3280        171
  15.3466        171
  15.3652        179
  15.3838        187
  15.4023        169
  15.4209        162
  15.4395        179
  15.4581        163
  15.4766        138
  15.4952        163
  15.5138        169
  15.5324        159
  15.5509        187
  15.5695        164
  15.5881        155
  15.6067        160
  15.6252        167
  15.6438        155
  15.6624        151
  15.6810        158
  15.6995        165
  15.7181        137
  15.7367        171
  15.7553        184
  15.7738        165
  15.7924        150
  15.8110        133
  15.8296        165
  15.8482        165
  15.8667        164
  15.8853        167
  15.9039        154
  15.9225        156
  15.9410        171
  15.9596        154
  15.9782        175
  15.9968        141
  16.0153        131
  16.0339        160
  16.0525        151
  16.0711        168
  16.0896        167
  16.1082        139
  16.1268        148
  16.1454        156
  16.1639        169
  16.1825        189
  16.2011        165
  16.2197        165
  16.2382        164
  16.2568        167
  16.2754        171
  16.2940        164
  16.3125        172
  16.3311        160
  16.3497        167
  16.3683        158
  16.3868        153
  16.4054        171
  16.4240        162
  16.4426        157
  16.4611        141
  16.4797        171
  16.4983        165
  16.5169        136
  16.5354        162
  16.5540        170
  16.5726        164
  16.5912        160
  16.6097        172
  16.6283        144
  16.6469        153
  16.6655        163
  16.6841        167
  16.7026        188
  16.7212        149
  16.7398        170
  16.7584        166
  16.7769        168
  16.7955        177
  16.8141        156
  16.8327        155
  16.8512        171
  16.8698        147
  16.8884        160
  16.9070        152
  16.9255        152
  16.9441        149
  16.9627        156
  16.9813        177
  16.9998        181
  17.0184        160
  17.0370        147
  17.0556        159
  17.0741        165
  17.0927        161
  17.1113        152
  17.1299        156
  17.1484        198
  17.1670        166
  17.1856        168
  17.2042        188
  17.2227        155
  17.2413        163
  17.2599        162
  17.2785        166
  17.2970        153
  17.3156        147
  17.3342        151
  17.3528        188
  17.3713        141
  17.3899        152
  17.4085        179
  17.4271        171
  17.4457        165
  17.4642        169
  17.4828        191
  17.5014        147
  17.5200        188
  17.5385        168
  17.5571        148
  17.5757        169
  17.5943        166
  17.6128        151
  17.6314        161
  17.6500        126
  17.6686        156
  17.6871        171
  17.7057        149
  17.7243        173
  17.7429        163
  17.7614        144
  17.7800        164
  17.7986        180
  17.8172        171
  17.8357        148
  17.8543        174
  17.8729        153
  17.8915        176
  17.9100        155
  17.9286        155
  17.9472        145
  17.9658        162
  17.9843        161
  18.0029        162
  18.0215        158
  18.0401        169
  18.0586        157
  18.0772        183
  18.0958        155
  18.1144        182
  18.1329        176
  18.1515        145
  18.1701        170
  18.1887        173
  18.2073        165
  18.2258        166
  18.2444        172
  18.2630        151
  18.2816        166
  18.3001        152
  18.3187        165
  18.3373        165
  18.3559        160
  18.3744        172
  18.3930        169
  18.4116        161
  18.4302        172
  18.4487        172
  18.4673        200
  18.4859        164
  18.5045        214
  18.5230        173
  18.5416        185
  18.5602        177
  18.5788        194
  18.5973        173
  18.6159        169
  18.6345        179
  18.6531        156
  18.6716        167
  18.6902        143
  18.7088        171
  18.7274        167
  18.7459        159
  18.7645        140
  18.7831        168
  18.8017        158
  18.8202        166
  18.8388        145
  18.8574        150
  18.8760        156
  18.8945        176
  18.9131        176
  18.9317        157
  18.9503        174
  18.9689        165
  18.9874        169
  19.0060        174
  19.0246        165
  19.0432        176
  19.0617        177
  19.0803        175
  19.0989        163
  19.1175        167
  19.1360        182
  19.1546        181
  19.1732        179
  19.1918        162
  19.2103        177
  19.2289        144
  19.2475        181
  19.2661        183
  19.2846        176
  19.3032        174
  19.3218        168
  19.3404        161
  19.3589        158
  19.3775        165
  19.3961        161
  19.4147        189
  19.4332        150
  19.4518        175
  19.4704        166
  19.4890        175
  19.5075        176
  19.5261        173
  19.5447        191
  19.5633        171
  19.5818        180
  19.6004        182
  19.6190        157
  19.6376        178
  19.6561        179
  19.6747        191
  19.6933        181
  19.7119        179
  19.7305        180
  19.7490        164
  19.7676        172
  19.7862        190
  19.8048        202
  19.8233        169
  19.8419        195
  19.8605        187
  19.8791        167
  19.8976        188
  19.9162        183
  19.9348        189
  19.9534        182
  19.9719        183
  19.9905        168
  20.0091        176
  20.0277        160
  20.0462        189
  20.0648        159
  20.0834        174
  20.1020        209
  20.1205        167
  20.1391        159
  20.1577        173
  20.1763        194
  20.1948        195
  20.2134        171
  20.2320        188
  20.2506        161
  20.2691        169
  20.2877        203
  20.3063        185
  20.3249        194
  20.3434        200
  20.3620        186
  20.3806        180
  20.3992        168
  20.4177        192
  20.4363        179
  20.4549        205
  20.4735        161
  20.4921        173
  20.5106        198
  20.5292        171
  20.5478        189
  20.5664        171
  20.5849        176
  20.6035        194
  20.6221        169
  20.6407        216
  20.6592        201
  20.6778        181
  20.6964        177
  20.7150        194
  20.7335        184
  20.7521        172
  20.7707        189
  20.7893        163
  20.8078        192
  20.8264        173
  20.8450        200
  20.8636        171
  20.8821        180
  20.9007        190
  20.9193        217
  20.9379        176
  20.9564        181
  20.9750        179
  20.9936        191
  21.0122        189
  21.0307        164
  21.0493        216
  21.0679        191
  21.0865        217
  21.1050        195
  21.1236        217
  21.1422        208
  21.1608        231
  21.1793        242
  21.1979        276
  21.2165        346
  21.2351        300
  21.2537        330
  21.2722        289
  21.2908        320
  21.3094        313
  21.3280        413
  21.3465        478
  21.3651        520
  21.3837        442
  21.4023        392
  21.4208        370
  21.4394        273
  21.4580        215
  21.4766        201
  21.4951        227
  21.5137        202
  21.5323        190
  21.5509        196
  21.5694        189
  21.5880        194
  21.6066        215
  21.6252        194
  21.6437        183
  21.6623        200
  21.6809        192
  21.6995        186
  21.7180        179
  21.7366        179
  21.7552        209
  21.7738        195
  21.7923        173
  21.8109        203
  21.8295        174
  21.8481        189
  21.8666        187
  21.8852        213
  21.9038        188
  21.9224        195
  21.9409        199
  21.9595        181
  21.9781        206
  21.9967        198
  22.0152        176
  22.0338        187
  22.0524        213
  22.0710        206
  22.0896        181
  22.1081        208
  22.1267        197
  22.1453        163
  22.1639        219
  22.1824        201
  22.2010        191
  22.2196        192
  22.2382        211
  22.2567        207
  22.2753        217
  22.2939        205
  22.3125        178
  22.3310        189
  22.3496        187
  22.3682        202
  22.3868        199
  22.4053        163
  22.4239        182
  22.4425        208
  22.4611        204
  22.4796        190
  22.4982        175
  22.5168        196
  22.5354        196
  22.5539        207
  22.5725        188
  22.5911        187
  22.6097        198
  22.6282        214
  22.6468        193
  22.6654        206
  22.6840        187
  22.7025        195
  22.7211        209
  22.7397        202
  22.7583        190
  22.7768        192
  22.7954        192
  22.8140        186
  22.8326        183
  22.8512        209
  22.8697        207
  22.8883        202
  22.9069        171
  22.9255        216
  22.9440        190
  22.9626        201
  22.9812        216
  22.9998        208
  23.0183        185
  23.0369        199
  23.0555        214
  23.0741        192
  23.0926        206
  23.1112        189
  23.1298        211
  23.1484        178
  23.1669        207
  23.1855        178
  23.2041        216
  23.2227        195
  23.2412        186
  23.2598        208
  23.2784        192
  23.2970        185
  23.3155        184
  23.3341        191
  23.3527        208
  23.3713        195
  23.3898        204
  23.4084        186
  23.4270        200
  23.4456        200
  23.4641        186
  23.4827        192
  23.5013        200
  23.5199        218
  23.5384        192
  23.5570        192
  23.5756        197
  23.5942        205
  23.6128        223
  23.6313        214
  23.6499        207
  23.6685        215
  23.6871        205
  23.7056        190
  23.7242        222
  23.7428        197
  23.7614        189
  23.7799        185
  23.7985        211
  23.8171        173
  23.8357        198
  23.8542        190
  23.8728        205
  23.8914        220
  23.9100        179
  23.9285        206
  23.9471        188
  23.9657        213
  23.9843        215
  24.0028        183
  24.0214        190
  24.0400        199
  24.0586        204
  24.0771        206
  24.0957        197
  24.1143        208
  24.1329        193
  24.1514        218
  24.1700        227
  24.1886        193
  24.2072        220
  24.2257        205
  24.2443        224
  24.2629        266
  24.2815        234
  24.3000        208
  24.3186        238
  24.3372        209
  24.3558        213
  24.3744        216
  24.3929        202
  24.4115        185
  24.4301        194
  24.4487        226
  24.4672        200
  24.4858        194
  24.5044        205
  24.5230        203
  24.5415        171
  24.5601        202
  24.5787        196
  24.5973        204
  24.6158        198
  24.6344        202
  24.6530        191
  24.6716        194
  24.6901        204
  24.7087        185
  24.7273        221
  24.7459        205
  24.7644        194
  24.7830        179
  24.8016        198
  24.8202        205
  24.8387        198
  24.8573        220
  24.8759        207
  24.8945        193
  24.9130        204
  24.9316        194
  24.9502        202
  24.9688        213
  24.9873        205
  25.0059        174
  25.0245        202
  25.0431        156
  25.0616        232
  25.0802        205
  25.0988        208
  25.1174        197
  25.1360        189
  25.1545        197
  25.1731        183
  25.1917        200
  25.2103        201
  25.2288        191
  25.2474        192
  25.2660        200
  25.2846        203
  25.3031        222
  25.3217        206
  25.3403        187
  25.3589        188
  25.3774        188
  25.3960        197
  25.4146        184
  25.4332        177
  25.4517        199
  25.4703        207
  25.4889        201
  25.5075        191
  25.5260        187
  25.5446        216
  25.5632        204
  25.5818        190
  25.6003        192
  25.6189        206
  25.6375        203
  25.6561        194
  25.6746        204
  25.6932        186
  25.7118        194
  25.7304        213
  25.7489        197
  25.7675        212
  25.7861        184
  25.8047        198
  25.8232        170
  25.8418        186
  25.8604        178
  25.8790        183
  25.8976        198
  25.9161        169
  25.9347        163
  25.9533        172
  25.9719        200
  25.9904        193
  26.0090        178
  26.0276        197
  26.0462        209
  26.0647        175
  26.0833        182
  26.1019        194
  26.1205        186
  26.1390        181
  26.1576        168
  26.1762        194
  26.1948        222
  26.2133        177
  26.2319        211
  26.2505        173
  26.2691        183
  26.2876        209
  26.3062        178
  26.3248        188
  26.3434        194
  26.3619        199
  26.3805        177
  26.3991        184
  26.4177        206
  26.4362        176
  26.4548        206
  26.4734        187
  26.4920        193
  26.5105        179
  26.5291        188
  26.5477        189
  26.5663        192
  26.5848        199
  26.6034        209
  26.6220        188
  26.6406        179
  26.6591        164
  26.6777        188
  26.6963        185
  26.7149        204
  26.7335        197
  26.7520        212
  26.7706        185
  26.7892        183
  26.8078        189
  26.8263        219
  26.8449        198
  26.8635        191
  26.8821        166
  26.9006        199
  26.9192        207
  26.9378        172
  26.9564        188
  26.9749        172
  26.9935        167
  27.0121        173
  27.0307        204
  27.0492        181
  27.0678        192
  27.0864        197
  27.1050        200
  27.1235        210
  27.1421        224
  27.1607        199
  27.1793        232
  27.1978        220
  27.2164        247
  27.2350        257
  27.2536        221
  27.2721        224
  27.2907        212
  27.3093        222
  27.3279        191
  27.3464        187
  27.3650        179
  27.3836        195
  27.4022        194
  27.4207        179
  27.4393        189
  27.4579        220
  27.4765        199
  27.4951        192
  27.5136        167
  27.5322        183
  27.5508        173
  27.5694        185
  27.5879        187
  27.6065        178
  27.6251        196
  27.6437        193
  27.6622        170
  27.6808        191
  27.6994        172
  27.7180        184
  27.7365        178
  27.7551        167
  27.7737        167
  27.7923        165
  27.8108        164
  27.8294        184
  27.8480        189
  27.8666        172
  27.8851        175
  27.9037        177
  27.9223        181
  27.9409        163
  27.9594        204
  27.9780        162
  27.9966        187
  28.0152        196
  28.0337        169
  28.0523        191
  28.0709        175
  28.0895        160
  28.1080        169
  28.1266        181
  28.1452        149
  28.1638        190
  28.1823        144
  28.2009        186
  28.2195        200
  28.2381        176
  28.2567        199
  28.2752        193
  28.2938        173
  28.3124        180
  28.3310        167
  28.3495        154
  28.3681        165
  28.3867        172
  28.4053        161
  28.4238        158
  28.4424        155
  28.4610        187
  28.4796        159
  28.4981        134
  28.5167        184
  28.5353        193
  28.5539        179
  28.5724        173
  28.5910        156
  28.6096        178
  28.6282        171
  28.6467        169
  28.6653        159
  28.6839        176
  28.7025        165
  28.7210        192
  28.7396        169
  28.7582        175
  28.7768        169
  28.7953        152
  28.8139        168
  28.8325        175
  28.8511        126
  28.8696        164
  28.8882        164
  28.9068        159
  28.9254        166
  28.9439        158
  28.9625        174
  28.9811        169
  28.9997        174
  29.0183        149
  29.0368        170
  29.0554        162
  29.0740        178
  29.0926        156
  29.1111        149
  29.1297        172
  29.1483        170
  29.1669        146
  29.1854        143
  29.2040        148
  29.2226        149
  29.2412        164
  29.2597        166
  29.2783        151
  29.2969        158
  29.3155        170
  29.3340        182
  29.3526        174
  29.3712        161
  29.3898        216
  29.4083        173
  29.4269        161
  29.4455        154
  29.4641        167
  29.4826        153
  29.5012        150
  29.5198        187
  29.5384        159
  29.5569        173
  29.5755        163
  29.5941        154
  29.6127        164
  29.6312        180
  29.6498        153
  29.6684        161
  29.6870        148
  29.7055        164
  29.7241        150
  29.7427        162
  29.7613        177
  29.7799        180
  29.7984        144
  29.8170        162
  29.8356        137
  29.8542        159
  29.8727        149
  29.8913        178
  29.9099        159
  29.9285        143
  29.9470        167
  29.9656        160
  29.9842        150
  30.0028        159
  30.0213        139
  30.0399        158
  30.0585        161
  30.0771        168
  30.0956        145
  30.1142        160
  30.1328        172
  30.1514        171
  30.1699        187
  30.1885        172
  30.2071        166
  30.2257        148
  30.2442        149
  30.2628        167
  30.2814        170
  30.3000        166
  30.3185        164
  30.3371        204
  30.3557        242
  30.3743        298
  30.3928        357
  30.4114        273
  30.4300        249
  30.4486        231
  30.4671        284
  30.4857        226
  30.5043        152
  30.5229        163
  30.5415        152
  30.5600        162
  30.5786        150
  30.5972        138
  30.6158        147
  30.6343        153
  30.6529        157
  30.6715        165
  30.6901        145
  30.7086        138
  30.7272        151
  30.7458        150
  30.7644        165
  30.7829        161
  30.8015        149
  30.8201        171
  30.8387        151
  30.8572        164
  30.8758        154
  30.8944        130
  30.9130        137
  30.9315        162
  30.9501        150
  30.9687        154
  30.9873        131
  31.0058        151
  31.0244        130
  31.0430        159
  31.0616        136
  31.0801        114
  31.0987        144
  31.1173        159
  31.1359        143
  31.1544        120
  31.1730        133
  31.1916        135
  31.2102        133
  31.2287        144
  31.2473        139
  31.2659        133
  31.2845        153
  31.3030        150
  31.3216        145
  31.3402        122
  31.3588        134
  31.3774        149
  31.3959        160
  31.4145        166
  31.4331        162
  31.4517        149
  31.4702        145
  31.4888        143
  31.5074        129
  31.5260        113
  31.5445        146
  31.5631        135
  31.5817        133
  31.6003        148
  31.6188        139
  31.6374        122
  31.6560        113
  31.6746        147
  31.6931        137
  31.7117        139
  31.7303        127
  31.7489        150
  31.7674        126
  31.7860        113
  31.8046        144
  31.8232        147
  31.8417        126
  31.8603        142
  31.8789        149
  31.8975        143
  31.9160        126
  31.9346        127
  31.9532        142
  31.9718        145
  31.9903        143
  32.0089        116
  32.0275        150
  32.0461        145
  32.0646        121
  32.0832        141
  32.1018        134
  32.1204        123
  32.1390        120
  32.1575        124
  32.1761        140
  32.1947        137
  32.2133        140
  32.2318        118
  32.2504        128
  32.2690        146
  32.2876        136
  32.3061        145
  32.3247        114
  32.3433        141
  32.3619        146
  32.3804        144
  32.3990        162
  32.4176        146
  32.4362        125
  32.4547        141
  32.4733        165
  32.4919        173
  32.5105        147
  32.5290        146
  32.5476        143
  32.5662        150
  32.5848        162
  32.6033        145
  32.6219        137
  32.6405        124
  32.6591        135
  32.6776        128
  32.6962        139
  32.7148        131
  32.7334        140
  32.7519        106
  32.7705        124
  32.7891        140
  32.8077        128
  32.8262        111
  32.8448        133
  32.8634        147
  32.8820        134
  32.9006        146
  32.9191        122
  32.9377        131
  32.9563        128
  32.9749        139
  32.9934        143
  33.0120         94
  33.0306        118
  33.0492        126
  33.0677        109
  33.0863        103
  33.1049        111
  33.1235        105
  33.1420        128
  33.1606        138
  33.1792        143
  33.1978        112
  33.2163        135
  33.2349        125
  33.2535        121
  33.2721        124
  33.2906         94
  33.3092        119
  33.3278        116
  33.3464        121
  33.3649        111
  33.3835        101
  33.4021        112
  33.4207        134
  33.4392        110
  33.4578        114
  33.4764        111
  33.4950        100
  33.5135        126
  33.5321        115
  33.5507        134
  33.5693        113
  33.5878         91
  33.6064        108
  33.6250        107
  33.6436        115
  33.6622        106
  33.6807        119
  33.6993        124
  33.7179        112
  33.7365        108
  33.7550        121
  33.7736        121
  33.7922        125
  33.8108         98
  33.8293        121
  33.8479        118
  33.8665        121
  33.8851        124
  33.9036        132
  33.9222        112
  33.9408        108
  33.9594        112
  33.9779        121
  33.9965        101
  34.0151        122
  34.0337        140
  34.0522        113
  34.0708        126
  34.0894        116
  34.1080         98
  34.1265        120
  34.1451        126
  34.1637        113
  34.1823        110
  34.2008        122
  34.2194        117
  34.2380        119
  34.2566        127
  34.2751        120
  34.2937        124
  34.3123        102
  34.3309        117
  34.3494        121
  34.3680        136
  34.3866        114
  34.4052        120
  34.4238        112
  34.4423        107
  34.4609        112
  34.4795        122
  34.4981        111
  34.5166        111
  34.5352        112
  34.5538         98
  34.5724        107
  34.5909        106
  34.6095        147
  34.6281        115
  34.6467        118
  34.6652        133
  34.6838        119
  34.7024        149
  34.7210        147
  34.7395        131
  34.7581        146
  34.7767        144
  34.7953        140
  34.8138        162
  34.8324        133
  34.8510        134
  34.8696        152
  34.8881        124
  34.9067        115
  34.9253        121
  34.9439        114
  34.9624        104
  34.9810        116
  34.9996        107
  35.0182        114
  35.0367        107
  35.0553        113
  35.0739        117
  35.0925         79
  35.1110        117
  35.1296         98
  35.1482        109
  35.1668        119
  35.1854         95
  35.2039        126
  35.2225        110
  35.2411         93
  35.2597        126
  35.2782        100
  35.2968        120
  35.3154        128
  35.3340        109
  35.3525         92
  35.3711        100
  35.3897        127
  35.4083         99
  35.4268        104
  35.4454        100
  35.4640        102
  35.4826         94
  35.5011         98
  35.5197        121
  35.5383        101
  35.5569         87
  35.5754        107
  35.5940         85
  35.6126         97
  35.6312         98
  35.6497        103
  35.6683        108
  35.6869         93
  35.7055         88
  35.7240         86
  35.7426        113
  35.7612         87
  35.7798        105
  35.7983        107
  35.8169        112
  35.8355         87
  35.8541        101
  35.8726         95
  35.8912        105
  35.9098        100
  35.9284        100
  35.9469        112
  35.9655        110
  35.9841         79
  36.0027         91
  36.0213         97
  36.0398         96
  36.0584        106
  36.0770         93
  36.0956         96
  36.1141        101
  36.1327        114
  36.1513         79
  36.1699         93
  36.1884         88
  36.2070         99
  36.2256        120
  36.2442         94
  36.2627         92
  36.2813        112
  36.2999        106
  36.3185        104
  36.3370         83
  36.3556        103
  36.3742        104
  36.3928         78
  36.4113        102
  36.4299         87
  36.4485         93
  36.4671         98
  36.4856         91
  36.5042         93
  36.5228         83
  36.5414         90
  36.5599        104
  36.5785         83
  36.5971         82
  36.6157         85
  36.6342         98
  36.6528         68
  36.6714         87
  36.6900        100
  36.7085         92
  36.7271         97
  36.7457        101
  36.7643         94
  36.7829        112
  36.8014         93
  36.8200         96
  36.8386        100
  36.8572         92
  36.8757         83
  36.8943         94
  36.9129         95
  36.9315         92
  36.9500         93
  36.9686         85
  36.9872         98
  37.0058         98
  37.0243        100
  37.0429         87
  37.0615        104
  37.0801         89
  37.0986         95
  37.1172         84
  37.1358        103
  37.1544         82
  37.1729         86
  37.1915         87
  37.2101        104
  37.2287         92
  37.2472        109
  37.2658         94
  37.2844         93
  37.3030         97
  37.3215        102
  37.3401        102
  37.3587         98
  37.3773         91
  37.3958        127
  37.4144        132
  37.4330        149
  37.4516        167
  37.4701        122
  37.4887        136
  37.5073        101
  37.5259        112
  37.5445        114
  37.5630        119
  37.5816         77
  37.6002         90
  37.6188         95
  37.6373         84
  37.6559        101
  37.6745         88
  37.6931         89
  37.7116         94
  37.7302         87
  37.7488         99
  37.7674         91
  37.7859         93
  37.8045         80
  37.8231         88
  37.8417        104
  37.8602         81
  37.8788         79
  37.8974         87
  37.9160         94
  37.9345         91
  37.9531        101
  37.9717         80
  37.9903         91
  38.0088         81
  38.0274         84
  38.0460         89
  38.0646         86
  38.0831         76
  38.1017         94
  38.1203         91
  38.1389         90
  38.1574         94
  38.1760         86
  38.1946         67
  38.2132         82
  38.2317         86
  38.2503         85
  38.2689         84
  38.2875         79
  38.3061         80
  38.3246         82
  38.3432         78
  38.3618         89
  38.3804         68
  38.3989         82
  38.4175         69
  38.4361         77
  38.4547         87
  38.4732         85
  38.4918         82
  38.5104         82
  38.5290         75
  38.5475         76
  38.5661         83
  38.5847         94
  38.6033         85
  38.6218         80
  38.6404         77
  38.6590         79
  38.6776         68
  38.6961         71
  38.7147         83
  38.7333         79
  38.7519         80
  38.7704         95
  38.7890         79
  38.8076         97
  38.8262         77
  38.8447         90
  38.8633         82
  38.8819         77
  38.9005         77
  38.9190         93
  38.9376         85
  38.9562         91
  38.9748         78
  38.9933         57
  39.0119         77
  39.0305         75
  39.0491         71
  39.0677         91
  39.0862         72
  39.1048         88
  39.1234         71
  39.1420         75
  39.1605         92
  39.1791         82
  39.1977         73
  39.2163         84
  39.2348         80
  39.2534         75
  39.2720         86
  39.2906         74
  39.3091         81
  39.3277         77
  39.3463         74
  39.3649         85
  39.3834         72
  39.4020         76
  39.4206         90
  39.4392         76
  39.4577         86
  39.4763         88
  39.4949         76
  39.5135         82
  39.5320         68
  39.5506         67
  39.5692         88
  39.5878         78
  39.6063         85
  39.6249         90
  39.6435         78
  39.6621         79
  39.6806         72
  39.6992         79
  39.7178         60
  39.7364         84
  39.7549         77
  39.7735         80
  39.7921         80
  39.8107        103
  39.8293         80
  39.8478         91
  39.8664         72
  39.8850         71
  39.9036         75
  39.9221         77
  39.9407         77
  39.9593         75
  39.9779         85
  39.9964         68
  40.0150         77
  40.0336         78
  40.0522         68
  40.0707         84
  40.0893         74
  40.1079         75
  40.1265         76
  40.1450         79
  40.1636         74
  40.1822         72
  40.2008         86
  40.2193         82
  40.2379         74
  40.2565         72
  40.2751         66
  40.2936         69
  40.3122         80
  40.3308         65
  40.3494         75
  40.3679         86
  40.3865         84
  40.4051         81
  40.4237         75
  40.4422         63
  40.4608         74
  40.4794         62
  40.4980         82
  40.5165         61
  40.5351         70
  40.5537         76
  40.5723         74
  40.5908         63
  40.6094         98
  40.6280         81
  40.6466         88
  40.6652         64
  40.6837         77
  40.7023         83
  40.7209         78
  40.7395         77
  40.7580         84
  40.7766         89
  40.7952         67
  40.8138         75
  40.8323         85
  40.8509         82
  40.8695         82
  40.8881         81
  40.9066         71
  40.9252         76
  40.9438         80
  40.9624         83
  40.9809         90
  40.9995         75
  41.0181         75
  41.0367         81
  41.0552         79
  41.0738         84
  41.0924         97
  41.1110         88
  41.1295         77
  41.1481         86
  41.1667         61
  41.1853         68
  41.2038         64
  41.2224         75
  41.2410         85
  41.2596         79
  41.2781         73
  41.2967         79
  41.3153         80
  41.3339         73
  41.3524         80
  41.3710         85
  41.3896         79
  41.4082         67
  41.4268         84
  41.4453         89
  41.4639         82
  41.4825         60
  41.5011         56
  41.5196         73
  41.5382         85
  41.5568         72
  41.5754         81
  41.5939         64
  41.6125         86
  41.6311         86
  41.6497         67
  41.6682         82
  41.6868         80
  41.7054         78
  41.7240         71
  41.7425         85
  41.7611         67
  41.7797         74
  41.7983         74
  41.8168         79
  41.8354         72
  41.8540         79
  41.8726         78
  41.8911         58
  41.9097         61
  41.9283         78
  41.9469         65
  41.9654         75
  41.9840         68
  42.0026         80
  42.0212         82
  42.0397         83
  42.0583         65
  42.0769         74
  42.0955         72
  42.1140         77
  42.1326         71
  42.1512         80
  42.1698         91
  42.1884         80
  42.2069         65
  42.2255         75
  42.2441         79
  42.2627         68
  42.2812         88
  42.2998         64
  42.3184         65
  42.3370         65
  42.3555         61
  42.3741         71
  42.3927         79
  42.4113         83
  42.4298         89
  42.4484         75
  42.4670         78
  42.4856         75
  42.5041         78
  42.5227         75
  42.5413         71
  42.5599         79
  42.5784         79
  42.5970         73
  42.6156         65
  42.6342         82
  42.6527         85
  42.6713         77
  42.6899         71
  42.7085         72
  42.7270         78
  42.7456         72
  42.7642         69
  42.7828         78
  42.8013         61
  42.8199         61
  42.8385         55
  42.8571         80
  42.8756         82
  42.8942         84
  42.9128         68
  42.9314         76
  42.9500         59
  42.9685         79
  42.9871         80
  43.0057         82
  43.0243         85
  43.0428         74
  43.0614         65
  43.0800         75
  43.0986         81
  43.1171         77
  43.1357         82
  43.1543         72
  43.1729         72
  43.1914         76
  43.2100         91
  43.2286         81
  43.2472         88
  43.2657         88
  43.2843         84
  43.3029        100
  43.3215         81
  43.3400        102
  43.3586         79
  43.3772         80
  43.3958         89
  43.4143         68
  43.4329         73
  43.4515         80
  43.4701         95
  43.4886        129
  43.5072        130
  43.5258        127
  43.5444        115
  43.5629         89
  43.5815        107
  43.6001        100
  43.6187        108
  43.6372         92
  43.6558         92
  43.6744         69
  43.6930         84
  43.7116         66
  43.7301         84
  43.7487         70
  43.7673         68
  43.7859         68
  43.8044         66
  43.8230         79
  43.8416         75
  43.8602         80
  43.8787         76
  43.8973         83
  43.9159         75
  43.9345         84
  43.9530         81
  43.9716         72
  43.9902         71
  44.0088         57
  44.0273         63
  44.0459         70
  44.0645         76
  44.0831         69
  44.1016         79
  44.1202         65
  44.1388         84
  44.1574         66
  44.1759         68
  44.1945         67
  44.2131         84
  44.2317         64
  44.2502         66
  44.2688         77
  44.2874         81
  44.3060         82
  44.3245         70
  44.3431         85
  44.3617         67
  44.3803         75
  44.3988         71
  44.4174         77
  44.4360         72
  44.4546         82
  44.4732         89
  44.4917         88
  44.5103         79
  44.5289         73
  44.5475         76
  44.5660         73
  44.5846         81
  44.6032         62
  44.6218         77
  44.6403         89
  44.6589         69
  44.6775         92
  44.6961         69
  44.7146         88
  44.7332         86
  44.7518         70
  44.7704         79
  44.7889         78
  44.8075         74
  44.8261         74
  44.8447         88
  44.8632         64
  44.8818         70
  44.9004         80
  44.9190         80
  44.9375         71
  44.9561         66
  44.9747         68
  44.9933         66
  45.0118         69
  45.0304         66
  45.0490         74
  45.0676         81
  45.0861         71
  45.1047         70
  45.1233         74
  45.1419         62
  45.1604         75
  45.1790         52
  45.1976         69
  45.2162         75
  45.2347         82
  45.2533         80
  45.2719         60
  45.2905         72
  45.3091         56
  45.3276         83
  45.3462         75
  45.3648         75
  45.3834         61
  45.4019         68
  45.4205         63
  45.4391         78
  45.4577         73
  45.4762         62
  45.4948         67
  45.5134         61
  45.5320         65
  45.5505         69
  45.5691         72
  45.5877         75
  45.6063         70
  45.6248         57
  45.6434         63
  45.6620         69
  45.6806         61
  45.6991         59
  45.7177         69
  45.7363         68
  45.7549         67
  45.7734         80
  45.7920         65
  45.8106         63
  45.8292         77
  45.8477         68
  45.8663         55
  45.8849         65
  45.9035         85
  45.9220         63
  45.9406         67
  45.9592         68
  45.9778         69
  45.9963         43
  46.0149         62
  46.0335         80
  46.0521         71
  46.0707         74
  46.0892         84
  46.1078         59
  46.1264         59
  46.1450         58
  46.1635         67
  46.1821         58
  46.2007         67
  46.2193         53
  46.2378         71
  46.2564         58
  46.2750         74
  46.2936         68
  46.3121         77
  46.3307         73
  46.3493         53
  46.3679         79
  46.3864         36
  46.4050         57
  46.4236         66
  46.4422         73
  46.4607         70
  46.4793         65
  46.4979         88
  46.5165         53
  46.5350         54
  46.5536         83
  46.5722         63
  46.5908         68
  46.6093         84
  46.6279         69
  46.6465         73
  46.6651         67
  46.6836         71
  46.7022         73
  46.7208         46
  46.7394         61
  46.7579         65
  46.7765         81
  46.7951         59
  46.8137         72
  46.8323         73
  46.8508         65
  46.8694         61
  46.8880         59
  46.9066         69
  46.9251         57
  46.9437         65
  46.9623         61
  46.9809         64
  46.9994         69
  47.0180         57
  47.0366         54
  47.0552         69
  47.0737         55
  47.0923         59
  47.1109         48
  47.1295         74
  47.1480         74
  47.1666         64
  47.1852         69
  47.2038         62
  47.2223         70
  47.2409         77
  47.2595         68
  47.2781         57
  47.2966         75
  47.3152         55
  47.3338         68
  47.3524         57
  47.3709         50
  47.3895         53
  47.4081         67
  47.4267         60
  47.4452         62
  47.4638         59
  47.4824         62
  47.5010         65
  47.5195         73
  47.5381         71
  47.5567         53
  47.5753         69
  47.5939         55
  47.6124         54
  47.6310         48
  47.6496         63
  47.6682         60
  47.6867         59
  47.7053         61
  47.7239         67
  47.7425         73
  47.7610         62
  47.7796         64
  47.7982         65
  47.8168         73
  47.8353         68
  47.8539         68
  47.8725         57
  47.8911         47
  47.9096         71
  47.9282         65
  47.9468         72
  47.9654         77
  47.9839         68
  48.0025         74
  48.0211         65
  48.0397         66
  48.0582         69
  48.0768         51
  48.0954         69
  48.1140         62
  48.1325         51
  48.1511         56
  48.1697         54
  48.1883         64
  48.2068         60
  48.2254         60
  48.2440         70
  48.2626         72
  48.2811         50
  48.2997         64
  48.3183         68
  48.3369         66
  48.3555         77
  48.3740         59
  48.3926         65
  48.4112         68
  48.4298         62
  48.4483         77
  48.4669         62
  48.4855         65
  48.5041         76
  48.5226         75
  48.5412         76
  48.5598         82
  48.5784         77
  48.5969         63
  48.6155         65
  48.6341         61
  48.6527         38
  48.6712         49
  48.6898         61
  48.7084         77
  48.7270         59
  48.7455         69
  48.7641         70
  48.7827         72
  48.8013         75
  48.8198         78
  48.8384         78
  48.8570         73
  48.8756         71
  48.8941         78
  48.9127         87
  48.9313         93
  48.9499        110
  48.9684        115
  48.9870         94
  49.0056         72
  49.0242         57
  49.0427         87
  49.0613         72
  49.0799        106
  49.0985         98
  49.1171         80
  49.1356         82
  49.1542         67
  49.1728         59
  49.1914         61
  49.2099         71
  49.2285         60
  49.2471         56
  49.2657         65
  49.2842         41
  49.3028         70
  49.3214         70
  49.3400         54
  49.3585         74
  49.3771         61
  49.3957         60
  49.4143         60
  49.4328         46
  49.4514         59
  49.4700         71
  49.4886         65
  49.5071         67
  49.5257         74
  49.5443         59
  49.5629         54
  49.5814         64
  49.6000         65
  49.6186         79
  49.6372         72
  49.6557         70
  49.6743         57
  49.6929         71
  49.7115         65
  49.7300         65
  49.7486         62
  49.7672         62
  49.7858         65
  49.8043         70
  49.8229         57
  49.8415         61
  49.8601         66
  49.8786         69
  49.8972         64
  49.9158         59
  49.9344         52
  49.9530         55
  49.9715         74
  49.9901         49
  50.0087         79
  50.0273         60
  50.0458         59
  50.0644         72
  50.0830         64
  50.1016         67
  50.1201         57
  50.1387         71
  50.1573         67
  50.1759         60
  50.1944         53
  50.2130         73
  50.2316         60
  50.2502         60
  50.2687         68
  50.2873         58
  50.3059         61
  50.3245         60
  50.3430         72
  50.3616         63
  50.3802         53
  50.3988         64
  50.4173         64
  50.4359         66
  50.4545         63
  50.4731         71
  50.4916         86
  50.5102         66
  50.5288         76
  50.5474         64
  50.5659         61
  50.5845         67
  50.6031         50
  50.6217         49
  50.6402         71
  50.6588         59
  50.6774         57
  50.6960         56
  50.7146         65
  50.7331         68
  50.7517         52
  50.7703         73
  50.7889         61
  50.8074         69
  50.8260         51
  50.8446         57
  50.8632         69
  50.8817         77
  50.9003         63
  50.9189         61
  50.9375         79
  50.9560         61
  50.9746         61
  50.9932         73
  51.0118         63
  51.0303         61
  51.0489         54
  51.0675         59
  51.0861         69
  51.1046         51
  51.1232         65
  51.1418         43
  51.1604         54
  51.1789         65
  51.1975         67
  51.2161         61
  51.2347         50
  51.2532         47
  51.2718         80
  51.2904         71
  51.3090         60
  51.3275         59
  51.3461         50
  51.3647         70
  51.3833         59
  51.4018         79
  51.4204         61
  51.4390         61
  51.4576         67
  51.4762         65
  51.4947         56
  51.5133         56
  51.5319         60
  51.5505         48
  51.5690         63
  51.5876         53
  51.6062         59
  51.6248         53
  51.6433         72
  51.6619         63
  51.6805         66
  51.6991         56
  51.7176         61
  51.7362         49
  51.7548         63
  51.7734         53
  51.7919         60
  51.8105         67
  51.8291         73
  51.8477         63
  51.8662         56
  51.8848         56
  51.9034         61
  51.9220         66
  51.9405         56
  51.9591         45
  51.9777         71
  51.9963         71
  52.0148         73
  52.0334         49
  52.0520         69
  52.0706         56
  52.0891         52
  52.1077         61
  52.1263         50
  52.1449         77
  52.1634         51
  52.1820         64
  52.2006         55
  52.2192         50
  52.2378         52
  52.2563         49
  52.2749         56
  52.2935         54
  52.3121         46
  52.3306         67
  52.3492         48
  52.3678         61
  52.3864         68
  52.4049         67
  52.4235         64
  52.4421         63
  52.4607         57
  52.4792         64
  52.4978         63
  52.5164         58
  52.5350         62
  52.5535         44
  52.5721         74
  52.5907         59
  52.6093         66
  52.6278         59
  52.6464         45
  52.6650         59
  52.6836         60
  52.7021         55
  52.7207         59
  52.7393         59
  52.7579         57
  52.7764         54
  52.7950         52
  52.8136         57
  52.8322         62
  52.8507         54
  52.8693         66
  52.8879         66
  52.9065         56
  52.9250         60
  52.9436         49
  52.9622         53
  52.9808         59
  52.9994         63
  53.0179         68
  53.0365         76
  53.0551         58
  53.0737         56
  53.0922         73
  53.1108         57
  53.1294         73
  53.1480         66
  53.1665         68
  53.1851         55
  53.2037         55
  53.2223         46
  53.2408         56
  53.2594         40
  53.2780         52
  53.2966         52
  53.3151         31
  53.3337         56
  53.3523         64
  53.3709         55
  53.3894         45
  53.4080         57
  53.4266         76
  53.4452         53
  53.4637         64
  53.4823         60
  53.5009         57
  53.5195         65
  53.5380         61
  53.5566         57
  53.5752         63
  53.5938         55
  53.6123         59
  53.6309         51
  53.6495         54
  53.6681         53
  53.6866         56
  53.7052         41
  53.7238         68
  53.7424         61
  53.7610         58
  53.7795         53
  53.7981         80
  53.8167         56
  53.8353         52
  53.8538         57
  53.8724         53
  53.8910         56
  53.9096         62
  53.9281         84
  53.9467         67
  53.9653         58
  53.9839         80
  54.0024         80
  54.0210         81
  54.0396         70
  54.0582         76
  54.0767         64
  54.0953         63
  54.1139         63
  54.1325         79
  54.1510         56
  54.1696         63
  54.1882         61
  54.2068         62
  54.2253         68
  54.2439         64
  54.2625         63
  54.2811         47
  54.2996         52
  54.3182         58
  54.3368         46
  54.3554         55
  54.3739         72
  54.3925         64
  54.4111         54
  54.4297         66
  54.4482         57
  54.4668         63
  54.4854         62
  54.5040         46
  54.5225         51
  54.5411         53
  54.5597         48
  54.5783         63
  54.5969         50
  54.6154         53
  54.6340         58
  54.6526         49
  54.6712         61
  54.6897         65
  54.7083         59
  54.7269         63
  54.7455         48
  54.7640         53
  54.7826         51
  54.8012         45
  54.8198         58
  54.8383         57
  54.8569         49
  54.8755         56
  54.8941         70
  54.9126         57
  54.9312         50
  54.9498         68
  54.9684         54
  54.9869         65
  55.0055         49
  55.0241         59
  55.0427         56
  55.0612         67
  55.0798         48
  55.0984         60
  55.1170         53
  55.1355         49
  55.1541         51
  55.1727         59
  55.1913         59
  55.2098         55
  55.2284         53
  55.2470         52
  55.2656         70
  55.2841         52
  55.3027         56
  55.3213         55
  55.3399         55
  55.3585         55
  55.3770         53
  55.3956         61
  55.4142         57
  55.4328         59
  55.4513         51
  55.4699         69
  55.4885         55
  55.5071         65
  55.5256         52
  55.5442         57
  55.5628         53
  55.5814         52
  55.5999         65
  55.6185         67
  55.6371         63
  55.6557         53
  55.6742         49
  55.6928         58
  55.7114         52
  55.7300         55
  55.7485         59
  55.7671         72
  55.7857         59
  55.8043         61
  55.8228         50
  55.8414         63
  55.8600         50
  55.8786         58
  55.8971         51
  55.9157         59
  55.9343         47
  55.9529         58
  55.9714         55
  55.9900         62
  56.0086         56
  56.0272         65
  56.0457         59
  56.0643         56
  56.0829         50
  56.1015         51
  56.1201         61
  56.1386         50
  56.1572         49
  56.1758         66
  56.1944         64
  56.2129         53
  56.2315         70
  56.2501         74
  56.2687         71
  56.2872         60
  56.3058         55
  56.3244         47
  56.3430         46
  56.3615         59
  56.3801         65
  56.3987         69
  56.4173         57
  56.4358         66
  56.4544         63
  56.4730         67
  56.4916         48
  56.5101         59
  56.5287         65
  56.5473         48
  56.5659         48
  56.5844         58
  56.6030         53
  56.6216         57
  56.6402         65
  56.6587         58
  56.6773         59
  56.6959         54
  56.7145         49
  56.7330         61
  56.7516         47
  56.7702         51
  56.7888         64
  56.8073         66
  56.8259         49
  56.8445         50
  56.8631         48
  56.8817         67
  56.9002         62
  56.9188         57
  56.9374         54
  56.9560         55
  56.9745         46
  56.9931         61
  57.0117         65
  57.0303         62
  57.0488         55
  57.0674         67
  57.0860         61
  57.1046         56
  57.1231         50
  57.1417         49
  57.1603         54
  57.1789         42
  57.1974         63
  57.2160         60
  57.2346         52
  57.2532         59
  57.2717         60
  57.2903         47
  57.3089         55
  57.3275         59
  57.3460         57
  57.3646         61
  57.3832         63
  57.4018         56
  57.4203         60
  57.4389         56
  57.4575         57
  57.4761         56
  57.4946         52
  57.5132         37
  57.5318         45
  57.5504         61
  57.5689         50
  57.5875         46
  57.6061         52
  57.6247         48
  57.6433         61
  57.6618         58
  57.6804         64
  57.6990         48
  57.7176         53
  57.7361         53
  57.7547         55
  57.7733         63
  57.7919         59
  57.8104         72
  57.8290         57
  57.8476         51
  57.8662         59
  57.8847         50
  57.9033         58
  57.9219         69
  57.9405         50
  57.9590         66
  57.9776         47
  57.9962         55
  58.0148         66
  58.0333         61
  58.0519         48
  58.0705         68
  58.0891         57
  58.1076         51
  58.1262         56
  58.1448         58
  58.1634         49
  58.1819         53
  58.2005         48
  58.2191         55
  58.2377         55
  58.2562         47
  58.2748         47
  58.2934         43
  58.3120         49
  58.3305         54
  58.3491         62
  58.3677         62
  58.3863         56
  58.4049         66
  58.4234         56
  58.4420         37
  58.4606         47
  58.4792         50
  58.4977         56
  58.5163         57
  58.5349         57
  58.5535         55
  58.5720         60
  58.5906         55
  58.6092         72
  58.6278         60
  58.6463         60
  58.6649         66
  58.6835         56
  58.7021         70
  58.7206         65
  58.7392         48
  58.7578         67
  58.7764         65
  58.7949         43
  58.8135         52
  58.8321         50
  58.8507         51
  58.8692         58
  58.8878         46
  58.9064         47
  58.9250         52
  58.9435         49
  58.9621         56
  58.9807         71
  58.9993         71
  59.0178         48
  59.0364         46
  59.0550         56
  59.0736         50
  59.0921         47
  59.1107         59
  59.1293         45
  59.1479         53
  59.1664         65
  59.1850         52
  59.2036         53
  59.2222         55
  59.2408         46
  59.2593         50
  59.2779         52
  59.2965         59
  59.3151         64
  59.3336         67
  59.3522         55
  59.3708         51
  59.3894         41
  59.4079         44
  59.4265         58
  59.4451         66
  59.4637         49
  59.4822         55
  59.5008         60
  59.5194         49
  59.5380         56
  59.5565         53
  59.5751         58
  59.5937         51
  59.6123         55
  59.6308         54
  59.6494         57
  59.6680         58
  59.6866         61
  59.7051         48
  59.7237         53
  59.7423         78
  59.7609         58
  59.7794         46
  59.7980         41
  59.8166         52
  59.8352         63
  59.8537         55
  59.8723         59
  59.8909         46
  59.9095         53
  59.9280         53
  59.9466         57
  59.9652         50
  59.9838         44
  60.0024         57
