;,2THETA,
5.0000,130
5.0186,139
5.0372,138
5.0557,120
5.0743,135
5.0929,124
5.1115,126
5.1300,124
5.1486,138
5.1672,131
5.1858,117
5.2043,123
5.2229,138
5.2415,134
5.2601,124
5.2786,134
5.2972,112
5.3158,133
5.3344,105
5.3529,132
5.3715,109
5.3901,106
5.4087,119
5.4272,117
5.4458,120
5.4644,120
5.4830,104
5.5015,95
5.5201,106
5.5387,122
5.5573,108
5.5758,102
5.5944,119
5.6130,127
5.6316,108
5.6501,94
5.6687,91
5.6873,108
5.7059,97
5.7244,98
5.7430,87
5.7616,105
5.7802,117
5.7988,99
5.8173,107
5.8359,85
5.8545,103
5.8731,125
5.8916,118
5.9102,103
5.9288,98
5.9474,87
5.9659,104
5.9845,99
6.0031,108
6.0217,110
6.0402,94
6.0588,90
6.0774,108
6.0960,99
6.1145,91
6.1331,78
6.1517,107
6.1703,96
6.1888,86
6.2074,89
6.2260,108
6.2446,95
6.2631,98
6.2817,89
6.3003,97
6.3189,93
6.3374,93
6.3560,103
6.3746,100
6.3932,94
6.4117,89
6.4303,92
6.4489,74
6.4675,82
6.4860,79
6.5046,84
6.5232,86
6.5418,88
6.5604,84
6.5789,80
6.5975,95
6.6161,93
6.6347,98
6.6532,88
6.6718,94
6.6904,94
6.7090,83
6.7275,81
6.7461,93
6.7647,64
6.7833,96
6.8018,86
6.8204,84
6.8390,80
6.8576,70
6.8761,55
6.8947,75
6.9133,103
6.9319,79
6.9504,79
6.9690,73
6.9876,72
7.0062,83
7.0247,78
7.0433,87
7.0619,75
7.0805,90
7.0990,78
7.1176,69
7.1362,90
7.1548,88
7.1733,87
7.1919,80
7.2105,90
7.2291,77
7.2476,97
7.2662,78
7.2848,87
7.3034,77
7.3220,82
7.3405,77
7.3591,67
7.3777,83
7.3963,83
7.4148,72
7.4334,96
7.4520,77
7.4706,82
7.4891,67
7.5077,69
7.5263,70
7.5449,85
7.5634,81
7.5820,85
7.6006,94
7.6192,69
7.6377,92
7.6563,88
7.6749,88
7.6935,96
7.7120,75
7.7306,103
7.7492,101
7.7678,81
7.7863,97
7.8049,76
7.8235,102
7.8421,84
7.8606,104
7.8792,86
7.8978,97
7.9164,84
7.9349,88
7.9535,80
7.9721,90
7.9907,87
8.0092,115
8.0278,90
8.0464,116
8.0650,98
8.0835,101
8.1021,101
8.1207,91
8.1393,99
8.1579,94
8.1764,96
8.1950,81
8.2136,81
8.2322,112
8.2507,105
8.2693,101
8.2879,100
8.3065,102
8.3250,94
8.3436,117
8.3622,88
8.3808,100
8.3993,100
8.4179,109
8.4365,94
8.4551,93
8.4736,90
8.4922,108
8.5108,112
8.5294,98
8.5479,104
8.5665,94
8.5851,96
8.6037,99
8.6222,98
8.6408,90
8.6594,104
8.6780,93
8.6965,98
8.7151,121
8.7337,100
8.7523,105
8.7708,126
8.7894,101
8.8080,98
8.8266,113
8.8451,110
8.8637,105
8.8823,100
8.9009,101
8.9195,102
8.9380,95
8.9566,114
8.9752,114
8.9938,121
9.0123,104
9.0309,87
9.0495,113
9.0681,97
9.0866,97
9.1052,110
9.1238,118
9.1424,101
9.1609,107
9.1795,101
9.1981,111
9.2167,109
9.2352,104
9.2538,111
9.2724,98
9.2910,116
9.3095,124
9.3281,117
9.3467,109
9.3653,83
9.3838,119
9.4024,113
9.4210,100
9.4396,96
9.4581,119
9.4767,115
9.4953,101
9.5139,104
9.5324,110
9.5510,110
9.5696,116
9.5882,109
9.6067,111
9.6253,111
9.6439,101
9.6625,102
9.6811,111
9.6996,120
9.7182,102
9.7368,124
9.7554,108
9.7739,101
9.7925,118
9.8111,113
9.8297,125
9.8482,116
9.8668,122
9.8854,110
9.9040,122
9.9225,130
9.9411,116
9.9597,106
9.9783,115
9.9968,129
10.0154,104
10.0340,111
10.0526,126
10.0711,105
10.0897,133
10.1083,120
10.1269,139
10.1454,121
10.1640,119
10.1826,114
10.2012,121
10.2197,119
10.2383,119
10.2569,124
10.2755,121
10.2940,122
10.3126,139
10.3312,126
10.3498,118
10.3683,114
10.3869,120
10.4055,123
10.4241,111
10.4427,98
10.4612,125
10.4798,116
10.4984,104
10.5170,111
10.5355,115
10.5541,100
10.5727,117
10.5913,111
10.6098,105
10.6284,112
10.6470,122
10.6656,132
10.6841,108
10.7027,101
10.7213,114
10.7399,130
10.7584,119
10.7770,118
10.7956,117
10.8142,95
10.8327,118
10.8513,97
10.8699,112
10.8885,129
10.9070,129
10.9256,119
10.9442,127
10.9628,128
10.9813,106
10.9999,116
11.0185,98
11.0371,110
11.0556,141
11.0742,130
11.0928,100
11.1114,143
11.1299,127
11.1485,103
11.1671,132
11.1857,120
11.2043,104
11.2228,119
11.2414,127
11.2600,122
11.2786,124
11.2971,120
11.3157,121
11.3343,114
11.3529,105
11.3714,81
11.3900,140
11.4086,123
11.4272,132
11.4457,121
11.4643,116
11.4829,103
11.5015,137
11.5200,106
11.5386,106
11.5572,113
11.5758,112
11.5943,128
11.6129,104
11.6315,124
11.6501,123
11.6686,112
11.6872,121
11.7058,110
11.7244,109
11.7429,91
11.7615,116
11.7801,120
11.7987,119
11.8172,101
11.8358,110
11.8544,139
11.8730,141
11.8915,123
11.9101,124
11.9287,116
11.9473,121
11.9659,121
11.9844,122
12.0030,133
12.0216,90
12.0402,118
12.0587,116
12.0773,120
12.0959,130
12.1145,99
12.1330,121
12.1516,121
12.1702,121
12.1888,108
12.2073,101
12.2259,111
12.2445,115
12.2631,98
12.2816,109
12.3002,95
12.3188,93
12.3374,107
12.3559,107
12.3745,81
12.3931,112
12.4117,136
12.4302,110
12.4488,117
12.4674,125
12.4860,117
12.5045,110
12.5231,112
12.5417,115
12.5603,103
12.5788,109
12.5974,99
12.6160,107
12.6346,115
12.6531,102
12.6717,100
12.6903,90
12.7089,101
12.7274,113
12.7460,97
12.7646,100
12.7832,107
12.8018,91
12.8203,111
12.8389,104
12.8575,91
12.8761,100
12.8946,91
12.9132,87
12.9318,96
12.9504,90
12.9689,113
12.9875,106
13.0061,126
13.0247,108
13.0432,108
13.0618,102
13.0804,106
13.0990,108
13.1175,109
13.1361,106
13.1547,88
13.1733,89
13.1918,104
13.2104,92
13.2290,85
13.2476,98
13.2661,100
13.2847,93
13.3033,100
13.3219,108
13.3404,114
13.3590,86
13.3776,108
13.3962,75
13.4147,102
13.4333,89
13.4519,114
13.4705,79
13.4890,86
13.5076,87
13.5262,91
13.5448,97
13.5634,91
13.5819,88
13.6005,99
13.6191,97
13.6377,97
13.6562,87
13.6748,108
13.6934,90
13.7120,88
13.7305,89
13.7491,85
13.7677,117
13.7863,95
13.8048,85
13.8234,95
13.8420,104
13.8606,76
13.8791,114
13.8977,85
13.9163,96
13.9349,93
13.9534,94
13.9720,100
13.9906,109
14.0092,97
14.0277,91
14.0463,74
14.0649,92
14.0835,92
14.1020,108
14.1206,78
14.1392,84
14.1578,88
14.1763,89
14.1949,98
14.2135,86
14.2321,73
14.2506,94
14.2692,81
14.2878,98
14.3064,90
14.3250,98
14.3435,105
14.3621,81
14.3807,104
14.3993,86
14.4178,82
14.4364,86
14.4550,71
14.4736,82
14.4921,76
14.5107,71
14.5293,76
14.5479,92
14.5664,78
14.5850,86
14.6036,102
14.6222,83
14.6407,96
14.6593,88
14.6779,89
14.6965,98
14.7150,92
14.7336,77
14.7522,98
14.7708,90
14.7893,86
14.8079,87
14.8265,91
14.8451,99
14.8636,101
14.8822,94
14.9008,83
14.9194,75
14.9379,93
14.9565,72
14.9751,78
14.9937,80
15.0122,83
15.0308,92
15.0494,85
15.0680,88
15.0866,84
15.1051,81
15.1237,85
15.1423,84
15.1609,80
15.1794,68
15.1980,64
15.2166,86
15.2352,68
15.2537,76
15.2723,106
15.2909,80
15.3095,75
15.3280,79
15.3466,78
15.3652,97
15.3838,85
15.4023,70
15.4209,63
15.4395,96
15.4581,85
15.4766,79
15.4952,77
15.5138,91
15.5324,66
15.5509,75
15.5695,96
15.5881,64
15.6067,85
15.6252,95
15.6438,88
15.6624,81
15.6810,75
15.6995,92
15.7181,85
15.7367,84
15.7553,85
15.7738,81
15.7924,66
15.8110,72
15.8296,70
15.8482,84
15.8667,73
15.8853,70
15.9039,78
15.9225,83
15.9410,85
15.9596,78
15.9782,92
15.9968,94
16.0153,95
16.0339,88
16.0525,76
16.0711,72
16.0896,69
16.1082,74
16.1268,74
16.1454,77
16.1639,71
16.1825,80
16.2011,86
16.2197,97
16.2382,80
16.2568,80
16.2754,90
16.2940,89
16.3125,69
16.3311,90
16.3497,83
16.3683,91
16.3868,74
16.4054,85
16.4240,89
16.4426,99
16.4611,82
16.4797,70
16.4983,70
16.5169,96
16.5354,78
16.5540,88
16.5726,86
16.5912,74
16.6097,96
16.6283,82
16.6469,96
16.6655,82
16.6841,86
16.7026,78
16.7212,74
16.7398,75
16.7584,70
16.7769,91
16.7955,85
16.8141,74
16.8327,79
16.8512,91
16.8698,80
16.8884,84
16.9070,73
16.9255,87
16.9441,71
16.9627,75
16.9813,79
16.9998,71
17.0184,81
17.0370,74
17.0556,78
17.0741,88
17.0927,83
17.1113,83
17.1299,81
17.1484,75
17.1670,77
17.1856,80
17.2042,87
17.2227,88
17.2413,75
17.2599,99
17.2785,92
17.2970,69
17.3156,58
17.3342,72
17.3528,91
17.3713,99
17.3899,86
17.4085,79
17.4271,66
17.4457,73
17.4642,83
17.4828,93
17.5014,90
17.5200,94
17.5385,78
17.5571,66
17.5757,93
17.5943,64
17.6128,96
17.6314,84
17.6500,80
17.6686,78
17.6871,86
17.7057,80
17.7243,73
17.7429,72
17.7614,91
17.7800,58
17.7986,91
17.8172,86
17.8357,100
17.8543,75
17.8729,82
17.8915,88
17.9100,74
17.9286,75
17.9472,73
17.9658,82
17.9843,88
18.0029,82
18.0215,73
18.0401,97
18.0586,77
18.0772,70
18.0958,73
18.1144,80
18.1329,76
18.1515,74
18.1701,90
18.1887,82
18.2073,69
18.2258,80
18.2444,94
18.2630,82
18.2816,88
18.3001,80
18.3187,82
18.3373,71
18.3559,89
18.3744,80
18.3930,86
18.4116,77
18.4302,65
18.4487,57
18.4673,78
18.4859,85
18.5045,75
18.5230,65
18.5416,90
18.5602,83
18.5788,81
18.5973,73
18.6159,83
18.6345,88
18.6531,91
18.6716,73
18.6902,87
18.7088,92
18.7274,67
18.7459,87
18.7645,57
18.7831,73
18.8017,85
18.8202,75
18.8388,77
18.8574,82
18.8760,88
18.8945,83
18.9131,83
18.9317,83
18.9503,75
18.9689,77
18.9874,78
19.0060,83
19.0246,75
19.0432,68
19.0617,90
19.0803,90
19.0989,111
19.1175,78
19.1360,93
19.1546,69
19.1732,84
19.1918,68
19.2103,90
19.2289,77
19.2475,82
19.2661,76
19.2846,86
19.3032,88
19.3218,92
19.3404,93
19.3589,96
19.3775,81
19.3961,84
19.4147,68
19.4332,83
19.4518,81
19.4704,82
19.4890,78
19.5075,87
19.5261,92
19.5447,82
19.5633,75
19.5818,91
19.6004,94
19.6190,82
19.6376,84
19.6561,89
19.6747,111
19.6933,89
19.7119,82
19.7305,70
19.7490,84
19.7676,87
19.7862,90
19.8048,109
19.8233,88
19.8419,89
19.8605,84
19.8791,86
19.8976,90
19.9162,87
19.9348,101
19.9534,79
19.9719,101
19.9905,94
20.0091,82
20.0277,81
20.0462,94
20.0648,83
20.0834,71
20.1020,89
20.1205,87
20.1391,80
20.1577,96
20.1763,71
20.1948,78
20.2134,100
20.2320,100
20.2506,68
20.2691,82
20.2877,86
20.3063,89
20.3249,93
20.3434,91
20.3620,97
20.3806,103
20.3992,76
20.4177,87
20.4363,75
20.4549,90
20.4735,95
20.4921,79
20.5106,96
20.5292,74
20.5478,93
20.5664,99
20.5849,93
20.6035,94
20.6221,86
20.6407,92
20.6592,106
20.6778,93
20.6964,87
20.7150,90
20.7335,94
20.7521,104
20.7707,110
20.7893,78
20.8078,92
20.8264,90
20.8450,90
20.8636,94
20.8821,80
20.9007,79
20.9193,78
20.9379,98
20.9564,93
20.9750,97
20.9936,104
21.0122,92
21.0307,93
21.0493,95
21.0679,82
21.0865,99
21.1050,100
21.1236,94
21.1422,96
21.1608,126
21.1793,118
21.1979,131
21.2165,169
21.2351,162
21.2537,153
21.2722,144
21.2908,158
21.3094,143
21.3280,191
21.3465,250
21.3651,253
21.3837,197
21.4023,185
21.4208,147
21.4394,126
21.4580,130
21.4766,115
21.4951,112
21.5137,104
21.5323,98
21.5509,102
21.5694,108
21.5880,99
21.6066,94
21.6252,119
21.6437,82
21.6623,97
21.6809,100
21.6995,99
21.7180,117
21.7366,97
21.7552,95
21.7738,87
21.7923,108
21.8109,89
21.8295,84
21.8481,84
21.8666,103
21.8852,97
21.9038,91
21.9224,97
21.9409,110
21.9595,90
21.9781,109
21.9967,93
22.0152,97
22.0338,89
22.0524,124
22.0710,96
22.0896,90
22.1081,103
22.1267,84
22.1453,116
22.1639,78
22.1824,97
22.2010,95
22.2196,101
22.2382,96
22.2567,97
22.2753,96
22.2939,99
22.3125,99
22.3310,90
22.3496,87
22.3682,104
22.3868,103
22.4053,94
22.4239,99
22.4425,84
22.4611,79
22.4796,70
22.4982,80
22.5168,99
22.5354,84
22.5539,100
22.5725,89
22.5911,101
22.6097,95
22.6282,91
22.6468,107
22.6654,99
22.6840,88
22.7025,89
22.7211,109
22.7397,101
22.7583,102
22.7768,106
22.7954,94
22.8140,96
22.8326,84
22.8512,88
22.8697,98
22.8883,96
22.9069,107
22.9255,95
22.9440,102
22.9626,95
22.9812,101
22.9998,82
23.0183,76
23.0369,108
23.0555,105
23.0741,86
23.0926,95
23.1112,106
23.1298,94
23.1484,96
23.1669,100
23.1855,96
23.2041,99
23.2227,103
23.2412,93
23.2598,122
23.2784,108
23.2970,106
23.3155,91
23.3341,112
23.3527,97
23.3713,105
23.3898,104
23.4084,96
23.4270,99
23.4456,110
23.4641,106
23.4827,88
23.5013,99
23.5199,104
23.5384,84
23.5570,91
23.5756,110
23.5942,90
23.6128,90
23.6313,90
23.6499,105
23.6685,123
23.6871,109
23.7056,94
23.7242,88
23.7428,91
23.7614,106
23.7799,99
23.7985,90
23.8171,90
23.8357,97
23.8542,114
23.8728,107
23.8914,96
23.9100,114
23.9285,92
23.9471,108
23.9657,115
23.9843,103
24.0028,96
24.0214,107
24.0400,110
24.0586,107
24.0771,98
24.0957,101
24.1143,93
24.1329,76
24.1514,108
24.1700,96
24.1886,108
24.2072,88
24.2257,98
24.2443,107
24.2629,108
24.2815,125
24.3000,138
24.3186,111
24.3372,97
24.3558,110
24.3744,108
24.3929,102
24.4115,98
24.4301,93
24.4487,115
24.4672,103
24.4858,124
24.5044,77
24.5230,92
24.5415,100
24.5601,88
24.5787,123
24.5973,134
24.6158,119
24.6344,115
24.6530,108
24.6716,108
24.6901,95
24.7087,110
24.7273,88
24.7459,107
24.7644,94
24.7830,91
24.8016,84
24.8202,88
24.8387,104
24.8573,84
24.8759,97
24.8945,117
24.9130,84
24.9316,96
24.9502,91
24.9688,115
24.9873,85
25.0059,105
25.0245,85
25.0431,99
25.0616,95
25.0802,100
25.0988,93
25.1174,107
25.1360,87
25.1545,95
25.1731,98
25.1917,91
25.2103,92
25.2288,102
25.2474,98
25.2660,76
25.2846,110
25.3031,86
25.3217,97
25.3403,90
25.3589,112
25.3774,87
25.3960,119
25.4146,90
25.4332,86
25.4517,76
25.4703,89
25.4889,103
25.5075,90
25.5260,102
25.5446,76
25.5632,85
25.5818,83
25.6003,87
25.6189,106
25.6375,109
25.6561,99
25.6746,104
25.6932,89
25.7118,85
25.7304,88
25.7489,95
25.7675,90
25.7861,90
25.8047,91
25.8232,113
25.8418,84
25.8604,101
25.8790,78
25.8976,83
25.9161,95
25.9347,84
25.9533,99
25.9719,93
25.9904,85
26.0090,93
26.0276,82
26.0462,89
26.0647,85
26.0833,94
26.1019,99
26.1205,93
26.1390,87
26.1576,96
26.1762,110
26.1948,99
26.2133,80
26.2319,95
26.2505,109
26.2691,105
26.2876,83
26.3062,72
26.3248,88
26.3434,84
26.3619,99
26.3805,82
26.3991,91
26.4177,97
26.4362,93
26.4548,82
26.4734,94
26.4920,89
26.5105,88
26.5291,91
26.5477,93
26.5663,104
26.5848,99
26.6034,95
26.6220,105
26.6406,81
26.6591,90
26.6777,92
26.6963,106
26.7149,96
26.7335,69
26.7520,84
26.7706,102
26.7892,91
26.8078,97
26.8263,102
26.8449,76
26.8635,110
26.8821,96
26.9006,99
26.9192,92
26.9378,92
26.9564,97
26.9749,105
26.9935,100
27.0121,96
27.0307,94
27.0492,86
27.0678,100
27.0864,99
27.1050,101
27.1235,104
27.1421,92
27.1607,87
27.1793,103
27.1978,121
27.2164,114
27.2350,109
27.2536,128
27.2721,110
27.2907,109
27.3093,118
27.3279,96
27.3464,95
27.3650,96
27.3836,91
27.4022,96
27.4207,98
27.4393,90
27.4579,81
27.4765,97
27.4951,88
27.5136,83
27.5322,91
27.5508,92
27.5694,75
27.5879,94
27.6065,101
27.6251,82
27.6437,85
27.6622,87
27.6808,100
27.6994,96
27.7180,92
27.7365,82
27.7551,88
27.7737,92
27.7923,94
27.8108,92
27.8294,89
27.8480,69
27.8666,86
27.8851,82
27.9037,85
27.9223,88
27.9409,77
27.9594,79
27.9780,101
27.9966,94
28.0152,89
28.0337,83
28.0523,82
28.0709,97
28.0895,80
28.1080,85
28.1266,89
28.1452,96
28.1638,77
28.1823,73
28.2009,87
28.2195,88
28.2381,79
28.2567,82
28.2752,107
28.2938,86
28.3124,87
28.3310,74
28.3495,72
28.3681,88
28.3867,87
28.4053,97
28.4238,85
28.4424,85
28.4610,90
28.4796,91
28.4981,86
28.5167,102
28.5353,84
28.5539,68
28.5724,71
28.5910,90
28.6096,85
28.6282,88
28.6467,87
28.6653,85
28.6839,87
28.7025,79
28.7210,76
28.7396,68
28.7582,79
28.7768,73
28.7953,87
28.8139,74
28.8325,82
28.8511,85
28.8696,81
28.8882,96
28.9068,63
28.9254,76
28.9439,79
28.9625,76
28.9811,96
28.9997,64
29.0183,78
29.0368,91
29.0554,76
29.0740,90
29.0926,68
29.1111,75
29.1297,79
29.1483,96
29.1669,78
29.1854,85
29.2040,84
29.2226,82
29.2412,78
29.2597,86
29.2783,71
29.2969,65
29.3155,95
29.3340,73
29.3526,81
29.3712,84
29.3898,76
29.4083,73
29.4269,75
29.4455,75
29.4641,82
29.4826,72
29.5012,74
29.5198,77
29.5384,80
29.5569,87
29.5755,83
29.5941,90
29.6127,99
29.6312,79
29.6498,65
29.6684,90
29.6870,87
29.7055,81
29.7241,80
29.7427,78
29.7613,85
29.7799,93
29.7984,83
29.8170,88
29.8356,82
29.8542,86
29.8727,83
29.8913,82
29.9099,66
29.9285,76
29.9470,77
29.9656,73
29.9842,74
30.0028,78
30.0213,71
30.0399,88
30.0585,78
30.0771,94
30.0956,86
30.1142,93
30.1328,92
30.1514,73
30.1699,77
30.1885,75
30.2071,78
30.2257,95
30.2442,78
30.2628,83
30.2814,85
30.3000,105
30.3185,87
30.3371,95
30.3557,121
30.3743,130
30.3928,193
30.4114,155
30.4300,121
30.4486,98
30.4671,119
30.4857,119
30.5043,83
30.5229,76
30.5415,74
30.5600,72
30.5786,70
30.5972,80
30.6158,82
30.6343,78
30.6529,60
30.6715,70
30.6901,74
30.7086,70
30.7272,70
30.7458,71
30.7644,67
30.7829,67
30.8015,66
30.8201,64
30.8387,60
30.8572,83
30.8758,75
30.8944,81
30.9130,66
30.9315,76
30.9501,73
30.9687,63
30.9873,79
31.0058,76
31.0244,61
31.0430,67
31.0616,87
31.0801,66
31.0987,59
31.1173,80
31.1359,76
31.1544,72
31.1730,66
31.1916,61
31.2102,45
31.2287,93
31.2473,77
31.2659,75
31.2845,53
31.3030,71
31.3216,78
31.3402,60
31.3588,90
31.3774,77
31.3959,71
31.4145,80
31.4331,82
31.4517,72
31.4702,70
31.4888,73
31.5074,66
31.5260,74
31.5445,70
31.5631,61
31.5817,59
31.6003,69
31.6188,68
31.6374,75
31.6560,63
31.6746,62
31.6931,58
31.7117,56
31.7303,53
31.7489,70
31.7674,78
31.7860,67
31.8046,63
31.8232,59
31.8417,71
31.8603,69
31.8789,77
31.8975,71
31.9160,62
31.9346,72
31.9532,63
31.9718,57
31.9903,72
32.0089,62
32.0275,73
32.0461,66
32.0646,64
32.0832,80
32.1018,81
32.1204,73
32.1390,68
32.1575,59
32.1761,76
32.1947,59
32.2133,55
32.2318,60
32.2504,59
32.2690,66
32.2876,57
32.3061,69
32.3247,69
32.3433,59
32.3619,79
32.3804,60
32.3990,76
32.4176,63
32.4362,91
32.4547,82
32.4733,72
32.4919,68
32.5105,80
32.5290,67
32.5476,70
32.5662,79
32.5848,55
32.6033,65
32.6219,76
32.6405,66
32.6591,71
32.6776,53
32.6962,71
32.7148,65
32.7334,63
32.7519,64
32.7705,57
32.7891,68
32.8077,63
32.8262,64
32.8448,71
32.8634,66
32.8820,67
32.9006,61
32.9191,66
32.9377,69
32.9563,64
32.9749,56
32.9934,58
33.0120,63
33.0306,52
33.0492,52
33.0677,63
33.0863,56
33.1049,74
33.1235,67
33.1420,55
33.1606,61
33.1792,62
33.1978,62
33.2163,64
33.2349,65
33.2535,75
33.2721,46
33.2906,55
33.3092,56
33.3278,64
33.3464,64
33.3649,60
33.3835,40
33.4021,48
33.4207,52
33.4392,54
33.4578,69
33.4764,72
33.4950,69
33.5135,62
33.5321,58
33.5507,47
33.5693,53
33.5878,60
33.6064,57
33.6250,36
33.6436,58
33.6622,51
33.6807,70
33.6993,47
33.7179,47
33.7365,63
33.7550,57
33.7736,62
33.7922,42
33.8108,50
33.8293,57
33.8479,52
33.8665,63
33.8851,56
33.9036,63
33.9222,56
33.9408,66
33.9594,62
33.9779,68
33.9965,54
34.0151,52
34.0337,61
34.0522,53
34.0708,48
34.0894,51
34.1080,64
34.1265,44
34.1451,54
34.1637,43
34.1823,39
34.2008,51
34.2194,53
34.2380,60
34.2566,62
34.2751,56
34.2937,46
34.3123,47
34.3309,56
34.3494,54
34.3680,52
34.3866,56
34.4052,45
34.4238,60
34.4423,52
34.4609,48
34.4795,53
34.4981,57
34.5166,60
34.5352,63
34.5538,61
34.5724,50
34.5909,59
34.6095,52
34.6281,59
34.6467,53
34.6652,62
34.6838,56
34.7024,59
34.7210,77
34.7395,64
34.7581,71
34.7767,71
34.7953,78
34.8138,80
34.8324,55
34.8510,69
34.8696,71
34.8881,61
34.9067,50
34.9253,56
34.9439,64
34.9624,52
34.9810,62
34.9996,56
35.0182,50
35.0367,44
35.0553,50
35.0739,45
35.0925,58
35.1110,44
35.1296,66
35.1482,50
35.1668,57
35.1854,36
35.2039,55
35.2225,46
35.2411,55
35.2597,53
35.2782,64
35.2968,51
35.3154,46
35.3340,47
35.3525,46
35.3711,48
35.3897,58
35.4083,52
35.4268,57
35.4454,62
35.4640,47
35.4826,44
35.5011,55
35.5197,53
35.5383,47
35.5569,44
35.5754,40
35.5940,55
35.6126,42
35.6312,36
35.6497,43
35.6683,56
35.6869,54
35.7055,48
35.7240,51
35.7426,59
35.7612,57
35.7798,38
35.7983,50
35.8169,50
35.8355,39
35.8541,61
35.8726,46
35.8912,44
35.9098,60
35.9284,54
35.9469,49
35.9655,43
35.9841,51
36.0027,53
36.0213,51
36.0398,44
36.0584,45
36.0770,57
36.0956,37
36.1141,31
36.1327,46
36.1513,42
36.1699,46
36.1884,56
36.2070,50
36.2256,37
36.2442,42
36.2627,44
36.2813,40
36.2999,48
36.3185,37
36.3370,50
36.3556,45
36.3742,47
36.3928,35
36.4113,41
36.4299,58
36.4485,47
36.4671,49
36.4856,47
36.5042,29
36.5228,48
36.5414,48
36.5599,47
36.5785,40
36.5971,39
36.6157,62
36.6342,51
36.6528,39
36.6714,46
36.6900,57
36.7085,45
36.7271,50
36.7457,63
36.7643,46
36.7829,32
36.8014,48
36.8200,41
36.8386,45
36.8572,52
36.8757,55
36.8943,54
36.9129,47
36.9315,36
36.9500,49
36.9686,51
36.9872,44
37.0058,50
37.0243,49
37.0429,45
37.0615,49
37.0801,56
37.0986,34
37.1172,51
37.1358,35
37.1544,48
37.1729,34
37.1915,46
37.2101,39
37.2287,53
37.2472,38
37.2658,40
37.2844,41
37.3030,41
37.3215,37
37.3401,51
37.3587,63
37.3773,44
37.3958,54
37.4144,63
37.4330,66
37.4516,67
37.4701,62
37.4887,48
37.5073,47
37.5259,55
37.5445,59
37.5630,66
37.5816,41
37.6002,47
37.6188,41
37.6373,50
37.6559,37
37.6745,56
37.6931,40
37.7116,47
37.7302,39
37.7488,40
37.7674,38
37.7859,38
37.8045,52
37.8231,51
37.8417,38
37.8602,34
37.8788,43
37.8974,43
37.9160,41
37.9345,41
37.9531,39
37.9717,40
37.9903,40
38.0088,54
38.0274,43
38.0460,47
38.0646,53
38.0831,44
38.1017,45
38.1203,48
38.1389,44
38.1574,46
38.1760,42
38.1946,45
38.2132,47
38.2317,36
38.2503,35
38.2689,33
38.2875,45
38.3061,29
38.3246,52
38.3432,58
38.3618,38
38.3804,44
38.3989,52
38.4175,38
38.4361,43
38.4547,30
38.4732,37
38.4918,38
38.5104,45
38.5290,30
38.5475,39
38.5661,42
38.5847,38
38.6033,40
38.6218,43
38.6404,42
38.6590,47
38.6776,42
38.6961,50
38.7147,41
38.7333,46
38.7519,50
38.7704,41
38.7890,29
38.8076,52
38.8262,47
38.8447,44
38.8633,48
38.8819,40
38.9005,41
38.9190,43
38.9376,36
38.9562,46
38.9748,43
38.9933,36
39.0119,41
39.0305,38
39.0491,41
39.0677,43
39.0862,38
39.1048,43
39.1234,46
39.1420,41
39.1605,44
39.1791,36
39.1977,49
39.2163,35
39.2348,45
39.2534,45
39.2720,49
39.2906,28
39.3091,42
39.3277,49
39.3463,46
39.3649,41
39.3834,35
39.4020,19
39.4206,41
39.4392,43
39.4577,38
39.4763,32
39.4949,34
39.5135,27
39.5320,41
39.5506,43
39.5692,40
39.5878,44
39.6063,31
39.6249,51
39.6435,31
39.6621,39
39.6806,44
39.6992,35
39.7178,42
39.7364,46
39.7549,43
39.7735,28
39.7921,38
39.8107,49
39.8293,35
39.8478,44
39.8664,40
39.8850,33
39.9036,30
39.9221,33
39.9407,39
39.9593,33
39.9779,26
39.9964,32
40.0150,38
40.0336,39
40.0522,45
40.0707,33
40.0893,40
40.1079,41
40.1265,35
40.1450,35
40.1636,37
40.1822,38
40.2008,38
40.2193,43
40.2379,27
40.2565,37
40.2751,33
40.2936,51
40.3122,44
40.3308,34
40.3494,39
40.3679,34
40.3865,35
40.4051,43
40.4237,35
40.4422,36
40.4608,45
40.4794,34
40.4980,38
40.5165,36
40.5351,32
40.5537,33
40.5723,48
40.5908,30
40.6094,35
40.6280,30
40.6466,35
40.6652,39
40.6837,29
40.7023,43
40.7209,41
40.7395,40
40.7580,44
40.7766,35
40.7952,26
40.8138,46
40.8323,32
40.8509,31
40.8695,23
40.8881,32
40.9066,50
40.9252,45
40.9438,47
40.9624,33
40.9809,37
40.9995,39
41.0181,45
41.0367,42
41.0552,45
41.0738,39
41.0924,32
41.1110,33
41.1295,31
41.1481,27
41.1667,43
41.1853,40
41.2038,41
41.2224,44
41.2410,35
41.2596,34
41.2781,38
41.2967,44
41.3153,40
41.3339,41
41.3524,39
41.3710,34
41.3896,50
41.4082,40
41.4268,35
41.4453,36
41.4639,21
41.4825,45
41.5011,42
41.5196,45
41.5382,44
41.5568,37
41.5754,29
41.5939,43
41.6125,34
41.6311,43
41.6497,50
41.6682,41
41.6868,34
41.7054,42
41.7240,40
41.7425,42
41.7611,39
41.7797,36
41.7983,39
41.8168,36
41.8354,47
41.8540,35
41.8726,43
41.8911,33
41.9097,36
41.9283,45
41.9469,33
41.9654,36
41.9840,36
42.0026,41
42.0212,36
42.0397,39
42.0583,40
42.0769,37
42.0955,30
42.1140,37
42.1326,47
42.1512,35
42.1698,27
42.1884,46
42.2069,35
42.2255,35
42.2441,31
42.2627,40
42.2812,33
42.2998,46
42.3184,34
42.3370,50
42.3555,43
42.3741,26
42.3927,26
42.4113,30
42.4298,33
42.4484,28
42.4670,39
42.4856,32
42.5041,34
42.5227,40
42.5413,28
42.5599,30
42.5784,28
42.5970,32
42.6156,36
42.6342,35
42.6527,31
42.6713,43
42.6899,32
42.7085,39
42.7270,23
42.7456,30
42.7642,33
42.7828,31
42.8013,36
42.8199,40
42.8385,37
42.8571,26
42.8756,35
42.8942,38
42.9128,37
42.9314,34
42.9500,48
42.9685,35
42.9871,25
43.0057,34
43.0243,35
43.0428,25
43.0614,34
43.0800,27
43.0986,29
43.1171,34
43.1357,44
43.1543,31
43.1729,36
43.1914,33
43.2100,46
43.2286,39
43.2472,37
43.2657,34
43.2843,33
43.3029,41
43.3215,41
43.3400,39
43.3586,39
43.3772,43
43.3958,61
43.4143,39
43.4329,37
43.4515,59
43.4701,49
43.4886,56
43.5072,59
43.5258,63
43.5444,49
43.5629,52
43.5815,40
43.6001,41
43.6187,63
43.6372,53
43.6558,52
43.6744,50
43.6930,48
43.7116,40
43.7301,43
43.7487,37
43.7673,33
43.7859,34
43.8044,29
43.8230,43
43.8416,38
43.8602,38
43.8787,32
43.8973,38
43.9159,31
43.9345,43
43.9530,47
43.9716,40
43.9902,31
44.0088,32
44.0273,34
44.0459,43
44.0645,30
44.0831,31
44.1016,32
44.1202,29
44.1388,21
44.1574,35
44.1759,48
44.1945,37
44.2131,29
44.2317,31
44.2502,40
44.2688,29
44.2874,29
44.3060,46
44.3245,33
44.3431,44
44.3617,40
44.3803,44
44.3988,36
44.4174,33
44.4360,30
44.4546,34
44.4732,27
44.4917,33
44.5103,36
44.5289,31
44.5475,34
44.5660,29
44.5846,40
44.6032,44
44.6218,45
44.6403,43
44.6589,42
44.6775,39
44.6961,33
44.7146,43
44.7332,32
44.7518,29
44.7704,34
44.7889,42
44.8075,45
44.8261,41
44.8447,29
44.8632,36
44.8818,24
44.9004,37
44.9190,28
44.9375,24
44.9561,28
44.9747,37
44.9933,38
45.0118,47
45.0304,40
45.0490,46
45.0676,38
45.0861,40
45.1047,26
45.1233,33
45.1419,31
45.1604,24
45.1790,40
45.1976,33
45.2162,35
45.2347,31
45.2533,29
45.2719,30
45.2905,31
45.3091,41
45.3276,29
45.3462,34
45.3648,32
45.3834,34
45.4019,38
45.4205,36
45.4391,36
45.4577,34
45.4762,39
45.4948,40
45.5134,32
45.5320,31
45.5505,39
45.5691,36
45.5877,26
45.6063,29
45.6248,33
45.6434,25
45.6620,36
45.6806,29
45.6991,25
45.7177,25
45.7363,36
45.7549,28
45.7734,22
45.7920,30
45.8106,39
45.8292,28
45.8477,36
45.8663,27
45.8849,42
45.9035,27
45.9220,38
45.9406,32
45.9592,19
45.9778,34
45.9963,30
46.0149,27
46.0335,36
46.0521,29
46.0707,33
46.0892,29
46.1078,34
46.1264,37
46.1450,28
46.1635,30
46.1821,30
46.2007,32
46.2193,29
46.2378,31
46.2564,23
46.2750,26
46.2936,36
46.3121,40
46.3307,45
46.3493,43
46.3679,26
46.3864,32
46.4050,30
46.4236,37
46.4422,33
46.4607,40
46.4793,32
46.4979,37
46.5165,19
46.5350,35
46.5536,26
46.5722,34
46.5908,34
46.6093,34
46.6279,35
46.6465,32
46.6651,32
46.6836,41
46.7022,32
46.7208,29
46.7394,29
46.7579,40
46.7765,28
46.7951,47
46.8137,40
46.8323,31
46.8508,34
46.8694,37
46.8880,36
46.9066,35
46.9251,29
46.9437,25
46.9623,43
46.9809,26
46.9994,38
47.0180,31
47.0366,25
47.0552,45
47.0737,30
47.0923,33
47.1109,40
47.1295,34
47.1480,23
47.1666,31
47.1852,26
47.2038,33
47.2223,27
47.2409,30
47.2595,30
47.2781,33
47.2966,36
47.3152,39
47.3338,34
47.3524,33
47.3709,25
47.3895,42
47.4081,44
47.4267,34
47.4452,37
47.4638,34
47.4824,29
47.5010,24
47.5195,29
47.5381,35
47.5567,31
47.5753,33
47.5939,24
47.6124,26
47.6310,26
47.6496,27
47.6682,37
47.6867,37
47.7053,40
47.7239,28
47.7425,27
47.7610,28
47.7796,47
47.7982,26
47.8168,42
47.8353,29
47.8539,41
47.8725,44
47.8911,39
47.9096,29
47.9282,41
47.9468,32
47.9654,31
47.9839,40
48.0025,15
48.0211,34
48.0397,27
48.0582,27
48.0768,28
48.0954,32
48.1140,33
48.1325,32
48.1511,40
48.1697,30
48.1883,31
48.2068,27
48.2254,28
48.2440,19
48.2626,27
48.2811,21
48.2997,22
48.3183,29
48.3369,33
48.3555,28
48.3740,24
48.3926,30
48.4112,27
48.4298,36
48.4483,33
48.4669,25
48.4855,35
48.5041,32
48.5226,26
48.5412,25
48.5598,34
48.5784,37
48.5969,42
48.6155,24
48.6341,28
48.6527,36
48.6712,37
48.6898,38
48.7084,33
48.7270,38
48.7455,32
48.7641,33
48.7827,40
48.8013,24
48.8198,46
48.8384,30
48.8570,31
48.8756,43
48.8941,47
48.9127,41
48.9313,49
48.9499,44
48.9684,74
48.9870,55
49.0056,40
49.0242,34
49.0427,47
49.0613,41
49.0799,43
49.0985,54
49.1171,35
49.1356,35
49.1542,39
49.1728,32
49.1914,34
49.2099,35
49.2285,34
49.2471,27
49.2657,29
49.2842,31
49.3028,23
49.3214,27
49.3400,28
49.3585,23
49.3771,23
49.3957,28
49.4143,28
49.4328,25
49.4514,29
49.4700,37
49.4886,31
49.5071,32
49.5257,26
49.5443,29
49.5629,43
49.5814,36
49.6000,30
49.6186,38
49.6372,29
49.6557,38
49.6743,31
49.6929,25
49.7115,32
49.7300,35
49.7486,32
49.7672,27
49.7858,34
49.8043,34
49.8229,29
49.8415,26
49.8601,25
49.8786,36
49.8972,23
49.9158,31
49.9344,23
49.9530,23
49.9715,34
49.9901,33
50.0087,26
50.0273,36
50.0458,26
50.0644,32
50.0830,34
50.1016,28
50.1201,30
50.1387,39
50.1573,40
50.1759,38
50.1944,22
50.2130,29
50.2316,35
50.2502,32
50.2687,27
50.2873,34
50.3059,40
50.3245,30
50.3430,33
50.3616,28
50.3802,31
50.3988,34
50.4173,33
50.4359,29
50.4545,29
50.4731,27
50.4916,38
50.5102,33
50.5288,22
50.5474,25
50.5659,23
50.5845,27
50.6031,20
50.6217,13
50.6402,20
50.6588,33
50.6774,28
50.6960,25
50.7146,31
50.7331,34
50.7517,28
50.7703,28
50.7889,25
50.8074,35
50.8260,31
50.8446,29
50.8632,26
50.8817,36
50.9003,34
50.9189,26
50.9375,38
50.9560,28
50.9746,29
50.9932,30
51.0118,26
51.0303,21
51.0489,33
51.0675,21
51.0861,28
51.1046,30
51.1232,25
51.1418,17
51.1604,32
51.1789,26
51.1975,30
51.2161,33
51.2347,30
51.2532,25
51.2718,25
51.2904,28
51.3090,32
51.3275,24
51.3461,27
51.3647,32
51.3833,28
51.4018,25
51.4204,31
51.4390,43
51.4576,33
51.4762,33
51.4947,24
51.5133,31
51.5319,42
51.5505,36
51.5690,32
51.5876,43
51.6062,29
51.6248,26
51.6433,36
51.6619,29
51.6805,30
51.6991,27
51.7176,30
51.7362,29
51.7548,32
51.7734,36
51.7919,18
51.8105,37
51.8291,24
51.8477,19
51.8662,31
51.8848,43
51.9034,35
51.9220,27
51.9405,40
51.9591,25
51.9777,21
51.9963,34
52.0148,27
52.0334,38
52.0520,31
52.0706,31
52.0891,31
52.1077,43
52.1263,27
52.1449,31
52.1634,37
52.1820,26
52.2006,34
52.2192,35
52.2378,35
52.2563,32
52.2749,34
52.2935,24
52.3121,28
52.3306,27
52.3492,23
52.3678,30
52.3864,32
52.4049,39
52.4235,29
52.4421,34
52.4607,30
52.4792,36
52.4978,37
52.5164,29
52.5350,36
52.5535,30
52.5721,31
52.5907,29
52.6093,27
52.6278,25
52.6464,35
52.6650,29
52.6836,20
52.7021,25
52.7207,23
52.7393,24
52.7579,30
52.7764,29
52.7950,30
52.8136,28
52.8322,28
52.8507,30
52.8693,30
52.8879,39
52.9065,21
52.9250,31
52.9436,28
52.9622,21
52.9808,34
52.9994,33
53.0179,32
53.0365,26
53.0551,37
53.0737,30
53.0922,31
53.1108,27
53.1294,29
53.1480,36
53.1665,31
53.1851,35
53.2037,24
53.2223,30
53.2408,28
53.2594,19
53.2780,26
53.2966,31
53.3151,32
53.3337,26
53.3523,40
53.3709,24
53.3894,24
53.4080,29
53.4266,24
53.4452,23
53.4637,28
53.4823,16
53.5009,26
53.5195,28
53.5380,20
53.5566,38
53.5752,30
53.5938,31
53.6123,23
53.6309,28
53.6495,23
53.6681,36
53.6866,21
53.7052,31
53.7238,28
53.7424,23
53.7610,21
53.7795,25
53.7981,25
53.8167,33
53.8353,30
53.8538,27
53.8724,26
53.8910,27
53.9096,33
53.9281,27
53.9467,28
53.9653,42
53.9839,37
54.0024,46
54.0210,41
54.0396,40
54.0582,29
54.0767,33
54.0953,30
54.1139,26
54.1325,30
54.1510,29
54.1696,30
54.1882,19
54.2068,21
54.2253,38
54.2439,28
54.2625,25
54.2811,22
54.2996,36
54.3182,33
54.3368,24
54.3554,32
54.3739,27
54.3925,26
54.4111,26
54.4297,34
54.4482,29
54.4668,37
54.4854,23
54.5040,25
54.5225,20
54.5411,28
54.5597,26
54.5783,21
54.5969,19
54.6154,28
54.6340,20
54.6526,28
54.6712,26
54.6897,40
54.7083,25
54.7269,30
54.7455,25
54.7640,18
54.7826,28
54.8012,34
54.8198,36
54.8383,34
54.8569,31
54.8755,19
54.8941,43
54.9126,34
54.9312,27
54.9498,27
54.9684,25
54.9869,26
55.0055,16
55.0241,24
55.0427,35
55.0612,28
55.0798,40
55.0984,28
55.1170,36
55.1355,20
55.1541,31
55.1727,21
55.1913,31
55.2098,28
55.2284,20
55.2470,29
55.2656,33
55.2841,29
55.3027,26
55.3213,36
55.3399,26
55.3585,17
55.3770,26
55.3956,25
55.4142,23
55.4328,22
55.4513,26
55.4699,25
55.4885,26
55.5071,24
55.5256,25
55.5442,22
55.5628,31
55.5814,25
55.5999,32
55.6185,24
55.6371,19
55.6557,27
55.6742,26
55.6928,28
55.7114,27
55.7300,26
55.7485,32
55.7671,30
55.7857,25
55.8043,27
55.8228,23
55.8414,28
55.8600,27
55.8786,33
55.8971,21
55.9157,26
55.9343,39
55.9529,22
55.9714,27
55.9900,24
56.0086,23
56.0272,27
56.0457,21
56.0643,22
56.0829,22
56.1015,30
56.1201,24
56.1386,27
56.1572,28
56.1758,27
56.1944,46
56.2129,34
56.2315,49
56.2501,20
56.2687,22
56.2872,29
56.3058,37
56.3244,38
56.3430,30
56.3615,32
56.3801,37
56.3987,32
56.4173,27
56.4358,28
56.4544,36
56.4730,33
56.4916,31
56.5101,24
56.5287,28
56.5473,25
56.5659,36
56.5844,38
56.6030,30
56.6216,29
56.6402,23
56.6587,33
56.6773,30
56.6959,28
56.7145,28
56.7330,32
56.7516,28
56.7702,19
56.7888,25
56.8073,34
56.8259,29
56.8445,25
56.8631,31
56.8817,27
56.9002,25
56.9188,25
56.9374,31
56.9560,35
56.9745,31
56.9931,25
57.0117,29
57.0303,36
57.0488,23
57.0674,30
57.0860,23
57.1046,25
57.1231,18
57.1417,28
57.1603,27
57.1789,36
57.1974,42
57.2160,23
57.2346,28
57.2532,31
57.2717,36
57.2903,20
57.3089,28
57.3275,32
57.3460,17
57.3646,23
57.3832,33
57.4018,38
57.4203,28
57.4389,35
57.4575,35
57.4761,25
57.4946,28
57.5132,28
57.5318,27
57.5504,26
57.5689,17
57.5875,24
57.6061,36
57.6247,21
57.6433,17
57.6618,36
57.6804,32
57.6990,30
57.7176,30
57.7361,36
57.7547,30
57.7733,25
57.7919,31
57.8104,24
57.8290,25
57.8476,35
57.8662,39
57.8847,24
57.9033,33
57.9219,23
57.9405,33
57.9590,34
57.9776,24
57.9962,20
58.0148,30
58.0333,35
58.0519,42
58.0705,34
58.0891,24
58.1076,34
58.1262,28
58.1448,24
58.1634,26
58.1819,23
58.2005,31
58.2191,36
58.2377,21
58.2562,31
58.2748,39
58.2934,21
58.3120,26
58.3305,24
58.3491,22
58.3677,34
58.3863,37
58.4049,30
58.4234,25
58.4420,24
58.4606,25
58.4792,21
58.4977,35
58.5163,26
58.5349,23
58.5535,22
58.5720,29
58.5906,41
58.6092,24
58.6278,31
58.6463,28
58.6649,21
58.6835,25
58.7021,19
58.7206,29
58.7392,25
58.7578,23
58.7764,25
58.7949,32
58.8135,22
58.8321,27
58.8507,19
58.8692,24
58.8878,24
58.9064,35
58.9250,35
58.9435,27
58.9621,20
58.9807,23
58.9993,28
59.0178,35
59.0364,27
59.0550,44
59.0736,28
59.0921,29
59.1107,35
59.1293,29
59.1479,32
59.1664,24
59.1850,29
59.2036,23
59.2222,26
59.2408,29
59.2593,21
59.2779,30
59.2965,24
59.3151,24
59.3336,31
59.3522,22
59.3708,30
59.3894,23
59.4079,20
59.4265,20
59.4451,22
59.4637,29
59.4822,14
59.5008,25
59.5194,30
59.5380,30
59.5565,23
59.5751,16
59.5937,20
59.6123,27
59.6308,29
59.6494,23
59.6680,31
59.6866,26
59.7051,23
59.7237,32
59.7423,23
59.7609,26
59.7794,26
59.7980,25
59.8166,28
59.8352,20
59.8537,29
59.8723,22
59.8909,22
59.9095,29
59.9280,24
59.9466,34
59.9652,29
59.9838,32
60.0024,29
