; (content of file Y:\Sam\Apurva-07-20-2022\puck4\ML_20220718_51_SJD_4_LaB6-4min.raw)
_FILEVERSION = 3
_SAMPLE = ML_20220718_51_SJD_4_LaB6-4min
_+SAMPLE = 
_SITE = USA
_USER = Administrator
_GONIOMETER_CODE = 20
; Goniometer : D8 theta/2theta, stage : Unknown
_ATTACHMENTS_CODE = 0
_GONIOMETER_RADIUS = 200.5
_FIXED_DIVSLIT = 0.6
_FIXED_SAMPLESLIT = 0
_SOLLER_SLITS = 2
_FIXED_DETSLIT = 9.55
_MONOCHROMATOR = 0
; Incident beam monochromator : None
_SOLLER_SLITS_2 = N
_THIN_FILM = N
_BETA_FILTER = Y
_FIXED_ANTISLIT = 5.89
_ANALYZER_CODE = 0
; Received beam analyzer : None
_DATEMEASURED = "26-Jul-2022 14:05:16"
_WL_UNIT = A
_WL1 = 1.5406
_WL2 = 1.54439
_WL3 = 1.39222
_WLRATIO = 0.5
_ANODE = Cu
_V4_INF_CREATOR = XRDWizard
_V4_INF_CREATOR_VERSION = V2.9.0.22
_V4_INF_WIZARD_VERSION = V2.9.0.22
_V4_INF_WIZARD_ADDINS = V2.9.0.22
_V4_INF_WIZARD_DOCTYPE = XRD
_V4_INF_OSUSER = McQueenLab
_V4_INF_USER = Administrator
_V4_INF_SITE = USA
_V4_INF_SAMPLEID = ML_20220718_51_SJD_4_LaB6-4min

; Data for range 1
_DRIVE = COUPLED
_STEPTIME = 11.28
_STEPSIZE = 0.0185756
_STEPMODE = C
_START = 5
_THETA = 2.5
_2THETA = 5
_KHI = 0
_PHI = 0
_X = 0
_Y = 0
_Z = 0
_DETECTOR = 5
; Detector type : Unknown
_DETECTORSLIT = unkn
_AUX1 = 0
_AUX2 = 0
_AUX3 = 0
_TIMESTARTED = 15
_TEMP_RATE = -1
_TEMP_DELAY = -1
_KV = 40
_MA = 40
_RANGE_WL = 1.5406
_3DPLANE = 0
_V4_ADDITIONALDETECTOR = 257
_V4_PSD2THETA = 3.3901
_V4_PSDCHANNEL1 = 0
_V4_PSDAPERTURE = 12.68
_V4_PSDTYPE = 5
_V4_PSDFIXED = 0
_V4_COUNTERS_MASK = 4096
_V4_DRIVES_MASK = 0
_V4_ENCODERS_MASK = 0
_2THETACOUNTS = 1
; 2THETA  PSD
   5.0000        278
   5.0186        283
   5.0372        242
   5.0557        254
   5.0743        248
   5.0929        256
   5.1115        250
   5.1300        232
   5.1486        247
   5.1672        240
   5.1858        245
   5.2043        253
   5.2229        246
   5.2415        240
   5.2601        244
   5.2786        230
   5.2972        223
   5.3158        225
   5.3344        226
   5.3529        240
   5.3715        237
   5.3901        230
   5.4087        234
   5.4272        233
   5.4458        220
   5.4644        208
   5.4830        240
   5.5015        223
   5.5201        239
   5.5387        206
   5.5573        223
   5.5758        225
   5.5944        228
   5.6130        214
   5.6316        220
   5.6501        200
   5.6687        200
   5.6873        217
   5.7059        234
   5.7244        210
   5.7430        234
   5.7616        228
   5.7802        228
   5.7988        202
   5.8173        212
   5.8359        177
   5.8545        206
   5.8731        192
   5.8916        215
   5.9102        210
   5.9288        212
   5.9474        211
   5.9659        218
   5.9845        223
   6.0031        177
   6.0217        175
   6.0402        197
   6.0588        189
   6.0774        188
   6.0960        189
   6.1145        192
   6.1331        181
   6.1517        200
   6.1703        206
   6.1888        194
   6.2074        174
   6.2260        205
   6.2446        183
   6.2631        220
   6.2817        192
   6.3003        179
   6.3189        181
   6.3374        181
   6.3560        209
   6.3746        189
   6.3932        199
   6.4117        161
   6.4303        186
   6.4489        171
   6.4675        198
   6.4860        212
   6.5046        163
   6.5232        167
   6.5418        171
   6.5604        183
   6.5789        176
   6.5975        164
   6.6161        175
   6.6347        162
   6.6532        169
   6.6718        160
   6.6904        172
   6.7090        195
   6.7275        166
   6.7461        174
   6.7647        145
   6.7833        171
   6.8018        152
   6.8204        156
   6.8390        167
   6.8576        168
   6.8761        169
   6.8947        170
   6.9133        176
   6.9319        179
   6.9504        165
   6.9690        151
   6.9876        172
   7.0062        192
   7.0247        175
   7.0433        150
   7.0619        158
   7.0805        158
   7.0990        169
   7.1176        181
   7.1362        142
   7.1548        162
   7.1733        167
   7.1919        191
   7.2105        150
   7.2291        152
   7.2476        157
   7.2662        175
   7.2848        163
   7.3034        144
   7.3220        160
   7.3405        165
   7.3591        150
   7.3777        156
   7.3963        134
   7.4148        172
   7.4334        201
   7.4520        153
   7.4706        165
   7.4891        166
   7.5077        166
   7.5263        167
   7.5449        151
   7.5634        181
   7.5820        181
   7.6006        174
   7.6192        162
   7.6377        177
   7.6563        161
   7.6749        171
   7.6935        161
   7.7120        190
   7.7306        189
   7.7492        169
   7.7678        180
   7.7863        159
   7.8049        189
   7.8235        181
   7.8421        164
   7.8606        199
   7.8792        198
   7.8978        186
   7.9164        149
   7.9349        182
   7.9535        206
   7.9721        173
   7.9907        160
   8.0092        188
   8.0278        173
   8.0464        177
   8.0650        179
   8.0835        176
   8.1021        184
   8.1207        182
   8.1393        210
   8.1579        204
   8.1764        176
   8.1950        205
   8.2136        188
   8.2322        202
   8.2507        182
   8.2693        171
   8.2879        164
   8.3065        180
   8.3250        185
   8.3436        164
   8.3622        174
   8.3808        168
   8.3993        179
   8.4179        202
   8.4365        220
   8.4551        202
   8.4736        198
   8.4922        208
   8.5108        202
   8.5294        207
   8.5479        206
   8.5665        195
   8.5851        192
   8.6037        177
   8.6222        195
   8.6408        199
   8.6594        197
   8.6780        197
   8.6965        204
   8.7151        217
   8.7337        194
   8.7523        193
   8.7708        208
   8.7894        228
   8.8080        223
   8.8266        196
   8.8451        210
   8.8637        206
   8.8823        207
   8.9009        201
   8.9195        232
   8.9380        215
   8.9566        212
   8.9752        196
   8.9938        224
   9.0123        219
   9.0309        228
   9.0495        198
   9.0681        202
   9.0866        231
   9.1052        229
   9.1238        232
   9.1424        243
   9.1609        217
   9.1795        204
   9.1981        211
   9.2167        238
   9.2352        200
   9.2538        234
   9.2724        218
   9.2910        235
   9.3095        224
   9.3281        269
   9.3467        211
   9.3653        216
   9.3838        232
   9.4024        237
   9.4210        231
   9.4396        248
   9.4581        213
   9.4767        220
   9.4953        219
   9.5139        229
   9.5324        202
   9.5510        234
   9.5696        234
   9.5882        228
   9.6067        247
   9.6253        204
   9.6439        227
   9.6625        226
   9.6811        204
   9.6996        238
   9.7182        241
   9.7368        233
   9.7554        204
   9.7739        220
   9.7925        236
   9.8111        243
   9.8297        225
   9.8482        259
   9.8668        247
   9.8854        238
   9.9040        235
   9.9225        242
   9.9411        245
   9.9597        253
   9.9783        232
   9.9968        241
  10.0154        268
  10.0340        258
  10.0526        245
  10.0711        237
  10.0897        265
  10.1083        220
  10.1269        251
  10.1454        243
  10.1640        231
  10.1826        239
  10.2012        227
  10.2197        256
  10.2383        272
  10.2569        259
  10.2755        266
  10.2940        228
  10.3126        227
  10.3312        237
  10.3498        235
  10.3683        238
  10.3869        231
  10.4055        232
  10.4241        215
  10.4427        247
  10.4612        222
  10.4798        256
  10.4984        269
  10.5170        242
  10.5355        226
  10.5541        258
  10.5727        225
  10.5913        220
  10.6098        263
  10.6284        226
  10.6470        250
  10.6656        245
  10.6841        221
  10.7027        229
  10.7213        235
  10.7399        245
  10.7584        252
  10.7770        248
  10.7956        239
  10.8142        239
  10.8327        243
  10.8513        262
  10.8699        249
  10.8885        253
  10.9070        210
  10.9256        236
  10.9442        214
  10.9628        221
  10.9813        252
  10.9999        230
  11.0185        263
  11.0371        227
  11.0556        241
  11.0742        237
  11.0928        242
  11.1114        246
  11.1299        206
  11.1485        269
  11.1671        235
  11.1857        242
  11.2043        225
  11.2228        199
  11.2414        252
  11.2600        257
  11.2786        254
  11.2971        229
  11.3157        225
  11.3343        231
  11.3529        236
  11.3714        240
  11.3900        235
  11.4086        212
  11.4272        226
  11.4457        234
  11.4643        267
  11.4829        255
  11.5015        225
  11.5200        236
  11.5386        245
  11.5572        221
  11.5758        241
  11.5943        237
  11.6129        230
  11.6315        221
  11.6501        243
  11.6686        214
  11.6872        238
  11.7058        240
  11.7244        237
  11.7429        236
  11.7615        229
  11.7801        226
  11.7987        231
  11.8172        240
  11.8358        203
  11.8544        249
  11.8730        242
  11.8915        223
  11.9101        223
  11.9287        230
  11.9473        224
  11.9659        208
  11.9844        211
  12.0030        254
  12.0216        222
  12.0402        219
  12.0587        233
  12.0773        218
  12.0959        236
  12.1145        231
  12.1330        193
  12.1516        247
  12.1702        191
  12.1888        237
  12.2073        208
  12.2259        237
  12.2445        250
  12.2631        230
  12.2816        219
  12.3002        213
  12.3188        218
  12.3374        225
  12.3559        228
  12.3745        200
  12.3931        235
  12.4117        219
  12.4302        211
  12.4488        186
  12.4674        243
  12.4860        188
  12.5045        215
  12.5231        200
  12.5417        212
  12.5603        229
  12.5788        207
  12.5974        244
  12.6160        198
  12.6346        218
  12.6531        215
  12.6717        229
  12.6903        210
  12.7089        221
  12.7274        221
  12.7460        197
  12.7646        226
  12.7832        182
  12.8018        201
  12.8203        199
  12.8389        207
  12.8575        218
  12.8761        239
  12.8946        203
  12.9132        203
  12.9318        224
  12.9504        198
  12.9689        189
  12.9875        239
  13.0061        196
  13.0247        203
  13.0432        198
  13.0618        190
  13.0804        188
  13.0990        205
  13.1175        195
  13.1361        192
  13.1547        198
  13.1733        210
  13.1918        194
  13.2104        228
  13.2290        185
  13.2476        208
  13.2661        227
  13.2847        191
  13.3033        188
  13.3219        212
  13.3404        179
  13.3590        228
  13.3776        180
  13.3962        205
  13.4147        185
  13.4333        172
  13.4519        195
  13.4705        200
  13.4890        160
  13.5076        174
  13.5262        152
  13.5448        180
  13.5634        178
  13.5819        188
  13.6005        205
  13.6191        190
  13.6377        175
  13.6562        201
  13.6748        185
  13.6934        187
  13.7120        171
  13.7305        203
  13.7491        197
  13.7677        188
  13.7863        215
  13.8048        199
  13.8234        179
  13.8420        177
  13.8606        200
  13.8791        192
  13.8977        203
  13.9163        180
  13.9349        192
  13.9534        205
  13.9720        163
  13.9906        182
  14.0092        161
  14.0277        170
  14.0463        178
  14.0649        206
  14.0835        172
  14.1020        183
  14.1206        179
  14.1392        165
  14.1578        192
  14.1763        186
  14.1949        185
  14.2135        189
  14.2321        171
  14.2506        178
  14.2692        174
  14.2878        206
  14.3064        181
  14.3250        183
  14.3435        170
  14.3621        174
  14.3807        178
  14.3993        174
  14.4178        156
  14.4364        169
  14.4550        191
  14.4736        161
  14.4921        160
  14.5107        168
  14.5293        152
  14.5479        161
  14.5664        175
  14.5850        178
  14.6036        185
  14.6222        185
  14.6407        182
  14.6593        178
  14.6779        208
  14.6965        174
  14.7150        193
  14.7336        192
  14.7522        174
  14.7708        159
  14.7893        178
  14.8079        164
  14.8265        185
  14.8451        179
  14.8636        164
  14.8822        175
  14.9008        173
  14.9194        169
  14.9379        157
  14.9565        165
  14.9751        149
  14.9937        169
  15.0122        168
  15.0308        178
  15.0494        164
  15.0680        162
  15.0866        145
  15.1051        161
  15.1237        177
  15.1423        169
  15.1609        165
  15.1794        157
  15.1980        165
  15.2166        170
  15.2352        175
  15.2537        163
  15.2723        161
  15.2909        174
  15.3095        155
  15.3280        164
  15.3466        140
  15.3652        162
  15.3838        166
  15.4023        170
  15.4209        179
  15.4395        174
  15.4581        159
  15.4766        174
  15.4952        158
  15.5138        146
  15.5324        155
  15.5509        184
  15.5695        165
  15.5881        160
  15.6067        172
  15.6252        183
  15.6438        170
  15.6624        149
  15.6810        154
  15.6995        176
  15.7181        172
  15.7367        166
  15.7553        181
  15.7738        169
  15.7924        186
  15.8110        167
  15.8296        191
  15.8482        159
  15.8667        170
  15.8853        182
  15.9039        154
  15.9225        169
  15.9410        159
  15.9596        151
  15.9782        168
  15.9968        164
  16.0153        155
  16.0339        148
  16.0525        178
  16.0711        177
  16.0896        150
  16.1082        164
  16.1268        143
  16.1454        157
  16.1639        159
  16.1825        170
  16.2011        159
  16.2197        149
  16.2382        162
  16.2568        158
  16.2754        169
  16.2940        185
  16.3125        156
  16.3311        164
  16.3497        188
  16.3683        164
  16.3868        178
  16.4054        156
  16.4240        163
  16.4426        154
  16.4611        168
  16.4797        167
  16.4983        177
  16.5169        150
  16.5354        148
  16.5540        174
  16.5726        157
  16.5912        183
  16.6097        145
  16.6283        160
  16.6469        169
  16.6655        168
  16.6841        169
  16.7026        159
  16.7212        161
  16.7398        165
  16.7584        144
  16.7769        168
  16.7955        159
  16.8141        186
  16.8327        161
  16.8512        174
  16.8698        179
  16.8884        166
  16.9070        158
  16.9255        155
  16.9441        155
  16.9627        153
  16.9813        145
  16.9998        151
  17.0184        175
  17.0370        143
  17.0556        124
  17.0741        163
  17.0927        181
  17.1113        162
  17.1299        154
  17.1484        157
  17.1670        156
  17.1856        151
  17.2042        149
  17.2227        163
  17.2413        160
  17.2599        182
  17.2785        170
  17.2970        178
  17.3156        152
  17.3342        144
  17.3528        160
  17.3713        161
  17.3899        162
  17.4085        167
  17.4271        159
  17.4457        158
  17.4642        150
  17.4828        186
  17.5014        158
  17.5200        156
  17.5385        147
  17.5571        156
  17.5757        159
  17.5943        146
  17.6128        159
  17.6314        153
  17.6500        141
  17.6686        149
  17.6871        150
  17.7057        164
  17.7243        163
  17.7429        167
  17.7614        151
  17.7800        156
  17.7986        157
  17.8172        163
  17.8357        156
  17.8543        158
  17.8729        187
  17.8915        168
  17.9100        142
  17.9286        182
  17.9472        181
  17.9658        168
  17.9843        159
  18.0029        194
  18.0215        168
  18.0401        164
  18.0586        164
  18.0772        149
  18.0958        175
  18.1144        158
  18.1329        150
  18.1515        187
  18.1701        172
  18.1887        151
  18.2073        173
  18.2258        164
  18.2444        148
  18.2630        202
  18.2816        159
  18.3001        162
  18.3187        159
  18.3373        157
  18.3559        157
  18.3744        150
  18.3930        173
  18.4116        163
  18.4302        184
  18.4487        177
  18.4673        160
  18.4859        189
  18.5045        165
  18.5230        164
  18.5416        169
  18.5602        149
  18.5788        178
  18.5973        141
  18.6159        150
  18.6345        166
  18.6531        160
  18.6716        165
  18.6902        168
  18.7088        182
  18.7274        167
  18.7459        176
  18.7645        165
  18.7831        156
  18.8017        168
  18.8202        163
  18.8388        179
  18.8574        164
  18.8760        182
  18.8945        169
  18.9131        164
  18.9317        170
  18.9503        158
  18.9689        176
  18.9874        159
  19.0060        170
  19.0246        152
  19.0432        185
  19.0617        166
  19.0803        194
  19.0989        184
  19.1175        172
  19.1360        141
  19.1546        202
  19.1732        164
  19.1918        156
  19.2103        156
  19.2289        159
  19.2475        182
  19.2661        159
  19.2846        173
  19.3032        165
  19.3218        154
  19.3404        165
  19.3589        158
  19.3775        154
  19.3961        180
  19.4147        163
  19.4332        172
  19.4518        151
  19.4704        176
  19.4890        166
  19.5075        163
  19.5261        178
  19.5447        177
  19.5633        179
  19.5818        179
  19.6004        175
  19.6190        182
  19.6376        186
  19.6561        160
  19.6747        167
  19.6933        173
  19.7119        189
  19.7305        196
  19.7490        162
  19.7676        175
  19.7862        188
  19.8048        173
  19.8233        166
  19.8419        176
  19.8605        166
  19.8791        173
  19.8976        164
  19.9162        191
  19.9348        166
  19.9534        183
  19.9719        198
  19.9905        181
  20.0091        183
  20.0277        177
  20.0462        158
  20.0648        203
  20.0834        189
  20.1020        181
  20.1205        179
  20.1391        188
  20.1577        188
  20.1763        189
  20.1948        178
  20.2134        167
  20.2320        175
  20.2506        187
  20.2691        169
  20.2877        148
  20.3063        201
  20.3249        171
  20.3434        172
  20.3620        184
  20.3806        183
  20.3992        180
  20.4177        155
  20.4363        197
  20.4549        163
  20.4735        181
  20.4921        214
  20.5106        204
  20.5292        209
  20.5478        197
  20.5664        199
  20.5849        208
  20.6035        192
  20.6221        173
  20.6407        167
  20.6592        160
  20.6778        188
  20.6964        184
  20.7150        184
  20.7335        162
  20.7521        192
  20.7707        164
  20.7893        181
  20.8078        185
  20.8264        180
  20.8450        223
  20.8636        194
  20.8821        192
  20.9007        176
  20.9193        199
  20.9379        200
  20.9564        197
  20.9750        185
  20.9936        184
  21.0122        197
  21.0307        200
  21.0493        201
  21.0679        209
  21.0865        199
  21.1050        231
  21.1236        210
  21.1422        202
  21.1608        207
  21.1793        249
  21.1979        275
  21.2165        315
  21.2351        334
  21.2537        319
  21.2722        278
  21.2908        312
  21.3094        295
  21.3280        368
  21.3465        495
  21.3651        591
  21.3837        463
  21.4023        414
  21.4208        341
  21.4394        287
  21.4580        232
  21.4766        217
  21.4951        217
  21.5137        250
  21.5323        182
  21.5509        224
  21.5694        210
  21.5880        177
  21.6066        201
  21.6252        214
  21.6437        202
  21.6623        170
  21.6809        201
  21.6995        219
  21.7180        165
  21.7366        183
  21.7552        203
  21.7738        195
  21.7923        191
  21.8109        193
  21.8295        194
  21.8481        215
  21.8666        202
  21.8852        198
  21.9038        178
  21.9224        183
  21.9409        177
  21.9595        182
  21.9781        199
  21.9967        200
  22.0152        183
  22.0338        181
  22.0524        199
  22.0710        200
  22.0896        213
  22.1081        191
  22.1267        194
  22.1453        169
  22.1639        175
  22.1824        193
  22.2010        183
  22.2196        201
  22.2382        188
  22.2567        223
  22.2753        205
  22.2939        189
  22.3125        193
  22.3310        206
  22.3496        182
  22.3682        208
  22.3868        195
  22.4053        214
  22.4239        195
  22.4425        215
  22.4611        204
  22.4796        179
  22.4982        195
  22.5168        222
  22.5354        201
  22.5539        184
  22.5725        186
  22.5911        190
  22.6097        201
  22.6282        194
  22.6468        204
  22.6654        196
  22.6840        185
  22.7025        224
  22.7211        190
  22.7397        197
  22.7583        186
  22.7768        201
  22.7954        177
  22.8140        194
  22.8326        211
  22.8512        213
  22.8697        187
  22.8883        201
  22.9069        207
  22.9255        186
  22.9440        177
  22.9626        206
  22.9812        190
  22.9998        190
  23.0183        198
  23.0369        201
  23.0555        209
  23.0741        224
  23.0926        202
  23.1112        176
  23.1298        213
  23.1484        208
  23.1669        209
  23.1855        184
  23.2041        192
  23.2227        219
  23.2412        171
  23.2598        196
  23.2784        190
  23.2970        203
  23.3155        188
  23.3341        213
  23.3527        202
  23.3713        199
  23.3898        176
  23.4084        224
  23.4270        211
  23.4456        202
  23.4641        200
  23.4827        226
  23.5013        184
  23.5199        189
  23.5384        199
  23.5570        217
  23.5756        174
  23.5942        211
  23.6128        212
  23.6313        215
  23.6499        193
  23.6685        213
  23.6871        180
  23.7056        196
  23.7242        208
  23.7428        219
  23.7614        215
  23.7799        213
  23.7985        233
  23.8171        215
  23.8357        201
  23.8542        203
  23.8728        191
  23.8914        223
  23.9100        204
  23.9285        194
  23.9471        198
  23.9657        222
  23.9843        201
  24.0028        199
  24.0214        213
  24.0400        221
  24.0586        203
  24.0771        196
  24.0957        195
  24.1143        204
  24.1329        213
  24.1514        193
  24.1700        196
  24.1886        227
  24.2072        205
  24.2257        207
  24.2443        231
  24.2629        212
  24.2815        238
  24.3000        251
  24.3186        231
  24.3372        213
  24.3558        230
  24.3744        202
  24.3929        193
  24.4115        191
  24.4301        203
  24.4487        215
  24.4672        209
  24.4858        211
  24.5044        179
  24.5230        191
  24.5415        207
  24.5601        208
  24.5787        181
  24.5973        189
  24.6158        201
  24.6344        207
  24.6530        214
  24.6716        200
  24.6901        212
  24.7087        205
  24.7273        209
  24.7459        205
  24.7644        164
  24.7830        199
  24.8016        222
  24.8202        195
  24.8387        210
  24.8573        192
  24.8759        204
  24.8945        195
  24.9130        189
  24.9316        185
  24.9502        212
  24.9688        213
  24.9873        191
  25.0059        199
  25.0245        189
  25.0431        189
  25.0616        209
  25.0802        199
  25.0988        219
  25.1174        188
  25.1360        186
  25.1545        212
  25.1731        206
  25.1917        176
  25.2103        192
  25.2288        208
  25.2474        199
  25.2660        198
  25.2846        192
  25.3031        176
  25.3217        189
  25.3403        208
  25.3589        207
  25.3774        179
  25.3960        177
  25.4146        217
  25.4332        183
  25.4517        213
  25.4703        200
  25.4889        184
  25.5075        218
  25.5260        184
  25.5446        211
  25.5632        201
  25.5818        186
  25.6003        208
  25.6189        186
  25.6375        209
  25.6561        185
  25.6746        210
  25.6932        179
  25.7118        200
  25.7304        201
  25.7489        186
  25.7675        182
  25.7861        199
  25.8047        190
  25.8232        187
  25.8418        199
  25.8604        205
  25.8790        206
  25.8976        207
  25.9161        202
  25.9347        212
  25.9533        196
  25.9719        184
  25.9904        182
  26.0090        223
  26.0276        212
  26.0462        193
  26.0647        194
  26.0833        185
  26.1019        189
  26.1205        173
  26.1390        184
  26.1576        182
  26.1762        182
  26.1948        213
  26.2133        198
  26.2319        167
  26.2505        177
  26.2691        204
  26.2876        199
  26.3062        193
  26.3248        192
  26.3434        197
  26.3619        198
  26.3805        185
  26.3991        191
  26.4177        210
  26.4362        181
  26.4548        164
  26.4734        179
  26.4920        165
  26.5105        196
  26.5291        182
  26.5477        190
  26.5663        181
  26.5848        172
  26.6034        223
  26.6220        188
  26.6406        191
  26.6591        206
  26.6777        182
  26.6963        187
  26.7149        185
  26.7335        174
  26.7520        169
  26.7706        222
  26.7892        157
  26.8078        195
  26.8263        191
  26.8449        175
  26.8635        194
  26.8821        197
  26.9006        175
  26.9192        202
  26.9378        179
  26.9564        171
  26.9749        201
  26.9935        175
  27.0121        165
  27.0307        198
  27.0492        185
  27.0678        180
  27.0864        172
  27.1050        200
  27.1235        185
  27.1421        205
  27.1607        219
  27.1793        224
  27.1978        251
  27.2164        257
  27.2350        242
  27.2536        195
  27.2721        258
  27.2907        219
  27.3093        206
  27.3279        196
  27.3464        177
  27.3650        182
  27.3836        189
  27.4022        191
  27.4207        166
  27.4393        197
  27.4579        172
  27.4765        170
  27.4951        188
  27.5136        160
  27.5322        191
  27.5508        164
  27.5694        153
  27.5879        169
  27.6065        191
  27.6251        175
  27.6437        187
  27.6622        180
  27.6808        176
  27.6994        168
  27.7180        202
  27.7365        163
  27.7551        155
  27.7737        163
  27.7923        181
  27.8108        180
  27.8294        196
  27.8480        181
  27.8666        160
  27.8851        172
  27.9037        161
  27.9223        164
  27.9409        165
  27.9594        181
  27.9780        175
  27.9966        191
  28.0152        180
  28.0337        184
  28.0523        172
  28.0709        195
  28.0895        183
  28.1080        164
  28.1266        166
  28.1452        159
  28.1638        187
  28.1823        186
  28.2009        151
  28.2195        174
  28.2381        189
  28.2567        188
  28.2752        167
  28.2938        178
  28.3124        163
  28.3310        188
  28.3495        156
  28.3681        174
  28.3867        169
  28.4053        169
  28.4238        149
  28.4424        153
  28.4610        161
  28.4796        157
  28.4981        177
  28.5167        165
  28.5353        184
  28.5539        184
  28.5724        172
  28.5910        178
  28.6096        184
  28.6282        181
  28.6467        182
  28.6653        156
  28.6839        156
  28.7025        169
  28.7210        200
  28.7396        153
  28.7582        176
  28.7768        181
  28.7953        170
  28.8139        155
  28.8325        183
  28.8511        148
  28.8696        167
  28.8882        158
  28.9068        181
  28.9254        174
  28.9439        183
  28.9625        181
  28.9811        159
  28.9997        179
  29.0183        156
  29.0368        147
  29.0554        171
  29.0740        167
  29.0926        135
  29.1111        154
  29.1297        157
  29.1483        155
  29.1669        161
  29.1854        138
  29.2040        171
  29.2226        151
  29.2412        149
  29.2597        165
  29.2783        162
  29.2969        156
  29.3155        183
  29.3340        164
  29.3526        168
  29.3712        160
  29.3898        158
  29.4083        168
  29.4269        134
  29.4455        179
  29.4641        151
  29.4826        153
  29.5012        162
  29.5198        174
  29.5384        160
  29.5569        145
  29.5755        165
  29.5941        154
  29.6127        155
  29.6312        150
  29.6498        171
  29.6684        172
  29.6870        141
  29.7055        161
  29.7241        157
  29.7427        144
  29.7613        171
  29.7799        152
  29.7984        137
  29.8170        163
  29.8356        169
  29.8542        158
  29.8727        157
  29.8913        151
  29.9099        167
  29.9285        163
  29.9470        177
  29.9656        145
  29.9842        144
  30.0028        139
  30.0213        142
  30.0399        169
  30.0585        158
  30.0771        136
  30.0956        150
  30.1142        145
  30.1328        148
  30.1514        166
  30.1699        129
  30.1885        160
  30.2071        182
  30.2257        141
  30.2442        159
  30.2628        169
  30.2814        157
  30.3000        189
  30.3185        178
  30.3371        200
  30.3557        265
  30.3743        300
  30.3928        368
  30.4114        258
  30.4300        222
  30.4486        231
  30.4671        245
  30.4857        227
  30.5043        177
  30.5229        152
  30.5415        171
  30.5600        153
  30.5786        179
  30.5972        134
  30.6158        179
  30.6343        134
  30.6529        141
  30.6715        152
  30.6901        151
  30.7086        158
  30.7272        140
  30.7458        139
  30.7644        154
  30.7829        139
  30.8015        135
  30.8201        138
  30.8387        146
  30.8572        161
  30.8758        135
  30.8944        152
  30.9130        144
  30.9315        138
  30.9501        151
  30.9687        149
  30.9873        141
  31.0058        143
  31.0244        129
  31.0430        149
  31.0616        140
  31.0801        149
  31.0987        140
  31.1173        146
  31.1359        137
  31.1544        141
  31.1730        149
  31.1916        154
  31.2102        147
  31.2287        134
  31.2473        138
  31.2659        149
  31.2845        152
  31.3030        139
  31.3216        144
  31.3402        121
  31.3588        124
  31.3774        122
  31.3959        143
  31.4145        149
  31.4331        135
  31.4517        155
  31.4702        142
  31.4888        145
  31.5074        140
  31.5260        147
  31.5445        143
  31.5631        149
  31.5817        149
  31.6003        142
  31.6188        154
  31.6374        127
  31.6560        124
  31.6746        137
  31.6931        143
  31.7117        120
  31.7303        114
  31.7489        130
  31.7674        106
  31.7860        102
  31.8046        133
  31.8232        122
  31.8417        123
  31.8603        147
  31.8789        124
  31.8975        138
  31.9160        148
  31.9346        118
  31.9532        126
  31.9718        115
  31.9903        152
  32.0089        132
  32.0275        151
  32.0461        115
  32.0646        124
  32.0832        122
  32.1018        110
  32.1204        109
  32.1390        116
  32.1575        124
  32.1761        140
  32.1947        128
  32.2133        141
  32.2318        123
  32.2504        141
  32.2690        112
  32.2876        135
  32.3061        117
  32.3247        144
  32.3433        135
  32.3619        142
  32.3804        125
  32.3990        110
  32.4176        127
  32.4362        136
  32.4547        124
  32.4733        151
  32.4919        165
  32.5105        126
  32.5290        142
  32.5476        150
  32.5662        137
  32.5848        159
  32.6033        124
  32.6219        137
  32.6405        126
  32.6591        145
  32.6776        141
  32.6962        126
  32.7148        147
  32.7334        124
  32.7519        130
  32.7705        106
  32.7891        126
  32.8077        130
  32.8262        121
  32.8448        130
  32.8634        145
  32.8820        125
  32.9006        119
  32.9191        113
  32.9377        107
  32.9563        121
  32.9749        118
  32.9934        139
  33.0120        123
  33.0306        119
  33.0492        133
  33.0677        121
  33.0863        125
  33.1049        105
  33.1235        135
  33.1420        136
  33.1606        112
  33.1792        132
  33.1978        103
  33.2163        124
  33.2349        112
  33.2535        123
  33.2721        112
  33.2906        134
  33.3092        134
  33.3278        127
  33.3464        110
  33.3649        108
  33.3835        137
  33.4021        128
  33.4207         91
  33.4392        126
  33.4578        130
  33.4764        117
  33.4950        124
  33.5135        119
  33.5321        104
  33.5507        136
  33.5693        109
  33.5878        124
  33.6064        115
  33.6250        113
  33.6436        113
  33.6622        118
  33.6807        111
  33.6993        117
  33.7179        111
  33.7365        129
  33.7550        104
  33.7736        114
  33.7922        117
  33.8108        104
  33.8293        110
  33.8479        100
  33.8665        106
  33.8851        111
  33.9036        113
  33.9222        113
  33.9408        118
  33.9594        124
  33.9779        106
  33.9965        133
  34.0151        105
  34.0337         95
  34.0522        114
  34.0708        119
  34.0894        120
  34.1080        128
  34.1265        107
  34.1451        137
  34.1637        108
  34.1823        119
  34.2008        107
  34.2194        113
  34.2380        115
  34.2566        107
  34.2751        110
  34.2937        112
  34.3123        120
  34.3309        105
  34.3494        110
  34.3680        119
  34.3866        109
  34.4052        127
  34.4238        118
  34.4423        125
  34.4609        115
  34.4795        137
  34.4981        123
  34.5166        142
  34.5352        109
  34.5538        112
  34.5724        116
  34.5909        123
  34.6095        150
  34.6281        132
  34.6467        113
  34.6652        111
  34.6838        130
  34.7024        137
  34.7210        128
  34.7395        157
  34.7581        161
  34.7767        145
  34.7953        131
  34.8138        141
  34.8324        139
  34.8510        124
  34.8696        133
  34.8881        130
  34.9067        136
  34.9253        112
  34.9439        109
  34.9624        104
  34.9810        110
  34.9996        105
  35.0182        115
  35.0367        123
  35.0553        136
  35.0739        113
  35.0925        113
  35.1110         98
  35.1296        121
  35.1482        107
  35.1668        118
  35.1854        110
  35.2039        111
  35.2225         90
  35.2411         81
  35.2597         88
  35.2782        100
  35.2968         99
  35.3154        107
  35.3340        111
  35.3525        110
  35.3711         97
  35.3897         90
  35.4083         86
  35.4268        107
  35.4454         95
  35.4640        128
  35.4826        124
  35.5011         93
  35.5197         91
  35.5383         83
  35.5569         92
  35.5754         97
  35.5940        108
  35.6126         77
  35.6312        104
  35.6497         91
  35.6683         95
  35.6869         95
  35.7055         92
  35.7240         95
  35.7426         90
  35.7612         87
  35.7798         90
  35.7983         92
  35.8169         90
  35.8355         99
  35.8541         85
  35.8726         87
  35.8912         80
  35.9098         90
  35.9284        100
  35.9469         88
  35.9655         84
  35.9841         98
  36.0027        101
  36.0213         91
  36.0398        113
  36.0584        110
  36.0770        110
  36.0956        108
  36.1141         95
  36.1327         98
  36.1513         85
  36.1699        104
  36.1884        103
  36.2070        107
  36.2256        111
  36.2442        106
  36.2627         99
  36.2813         95
  36.2999         98
  36.3185         89
  36.3370         87
  36.3556         91
  36.3742         87
  36.3928         89
  36.4113        102
  36.4299        100
  36.4485         81
  36.4671         96
  36.4856         94
  36.5042        111
  36.5228         97
  36.5414         88
  36.5599        100
  36.5785        103
  36.5971        106
  36.6157         93
  36.6342         91
  36.6528         84
  36.6714         81
  36.6900         86
  36.7085         82
  36.7271         71
  36.7457         99
  36.7643         73
  36.7829         81
  36.8014         93
  36.8200         78
  36.8386         85
  36.8572        102
  36.8757         87
  36.8943         86
  36.9129        100
  36.9315         98
  36.9500        107
  36.9686         87
  36.9872         87
  37.0058         84
  37.0243         92
  37.0429        111
  37.0615         98
  37.0801        101
  37.0986         86
  37.1172         88
  37.1358         98
  37.1544        103
  37.1729         94
  37.1915         83
  37.2101         82
  37.2287         97
  37.2472         96
  37.2658        113
  37.2844         95
  37.3030         99
  37.3215         86
  37.3401         90
  37.3587         89
  37.3773        107
  37.3958        127
  37.4144        115
  37.4330        136
  37.4516        141
  37.4701        132
  37.4887        115
  37.5073        127
  37.5259        120
  37.5445        122
  37.5630        127
  37.5816         99
  37.6002        109
  37.6188         85
  37.6373         75
  37.6559        107
  37.6745        105
  37.6931         86
  37.7116         89
  37.7302         77
  37.7488         85
  37.7674         89
  37.7859         92
  37.8045         71
  37.8231         79
  37.8417         74
  37.8602         94
  37.8788         89
  37.8974         92
  37.9160         93
  37.9345         76
  37.9531         83
  37.9717         90
  37.9903         90
  38.0088         99
  38.0274         90
  38.0460        115
  38.0646         72
  38.0831        101
  38.1017         69
  38.1203         74
  38.1389         82
  38.1574         84
  38.1760         81
  38.1946         89
  38.2132         74
  38.2317         85
  38.2503         89
  38.2689         77
  38.2875         83
  38.3061         84
  38.3246         92
  38.3432         82
  38.3618         88
  38.3804         82
  38.3989         90
  38.4175         69
  38.4361         85
  38.4547         85
  38.4732         84
  38.4918         72
  38.5104         62
  38.5290         81
  38.5475         86
  38.5661         86
  38.5847         86
  38.6033         77
  38.6218         68
  38.6404         76
  38.6590         80
  38.6776         94
  38.6961         67
  38.7147         63
  38.7333         86
  38.7519         75
  38.7704         82
  38.7890         82
  38.8076         92
  38.8262         92
  38.8447         94
  38.8633        104
  38.8819         93
  38.9005         75
  38.9190         91
  38.9376         78
  38.9562         81
  38.9748         75
  38.9933         82
  39.0119         90
  39.0305         87
  39.0491         77
  39.0677         80
  39.0862         77
  39.1048         75
  39.1234         89
  39.1420         92
  39.1605         80
  39.1791        103
  39.1977        104
  39.2163        100
  39.2348         70
  39.2534         83
  39.2720         81
  39.2906         83
  39.3091         82
  39.3277         73
  39.3463         77
  39.3649         80
  39.3834         84
  39.4020         78
  39.4206         89
  39.4392         86
  39.4577         90
  39.4763         87
  39.4949         80
  39.5135         89
  39.5320         68
  39.5506         80
  39.5692         88
  39.5878         83
  39.6063         99
  39.6249         92
  39.6435         94
  39.6621         83
  39.6806         83
  39.6992         81
  39.7178         89
  39.7364         73
  39.7549         68
  39.7735         74
  39.7921         88
  39.8107         87
  39.8293         77
  39.8478         71
  39.8664         69
  39.8850         70
  39.9036         83
  39.9221         87
  39.9407         82
  39.9593         73
  39.9779         74
  39.9964         74
  40.0150         76
  40.0336         76
  40.0522         90
  40.0707         71
  40.0893         64
  40.1079         67
  40.1265         85
  40.1450         83
  40.1636         72
  40.1822         81
  40.2008         70
  40.2193         84
  40.2379         80
  40.2565         73
  40.2751         73
  40.2936         72
  40.3122         81
  40.3308         76
  40.3494         69
  40.3679         74
  40.3865         69
  40.4051         80
  40.4237         86
  40.4422         78
  40.4608         72
  40.4794         72
  40.4980         67
  40.5165         75
  40.5351         76
  40.5537         79
  40.5723         55
  40.5908         89
  40.6094         71
  40.6280         80
  40.6466         90
  40.6652         76
  40.6837         82
  40.7023         76
  40.7209         86
  40.7395         74
  40.7580         61
  40.7766         89
  40.7952         70
  40.8138         87
  40.8323         70
  40.8509         93
  40.8695         88
  40.8881         93
  40.9066         89
  40.9252         81
  40.9438         71
  40.9624         83
  40.9809         94
  40.9995         94
  41.0181         80
  41.0367         67
  41.0552         84
  41.0738         72
  41.0924         76
  41.1110         78
  41.1295         80
  41.1481         72
  41.1667         85
  41.1853         85
  41.2038         78
  41.2224         78
  41.2410         62
  41.2596         72
  41.2781         74
  41.2967         58
  41.3153         71
  41.3339         88
  41.3524         91
  41.3710         74
  41.3896         80
  41.4082         70
  41.4268         67
  41.4453         82
  41.4639         78
  41.4825         60
  41.5011         70
  41.5196         86
  41.5382         69
  41.5568         79
  41.5754         60
  41.5939         76
  41.6125         76
  41.6311         75
  41.6497         75
  41.6682         87
  41.6868         86
  41.7054         75
  41.7240         69
  41.7425         62
  41.7611         74
  41.7797         78
  41.7983         75
  41.8168         81
  41.8354         72
  41.8540         66
  41.8726         65
  41.8911         73
  41.9097         91
  41.9283         75
  41.9469         79
  41.9654         63
  41.9840         85
  42.0026         74
  42.0212         71
  42.0397         73
  42.0583         64
  42.0769         79
  42.0955         66
  42.1140         71
  42.1326         81
  42.1512         81
  42.1698         59
  42.1884         78
  42.2069         79
  42.2255         92
  42.2441         81
  42.2627         75
  42.2812         70
  42.2998         76
  42.3184         86
  42.3370         77
  42.3555         84
  42.3741         61
  42.3927         73
  42.4113         69
  42.4298         90
  42.4484         66
  42.4670         82
  42.4856         78
  42.5041         75
  42.5227         71
  42.5413         68
  42.5599         81
  42.5784         72
  42.5970         77
  42.6156         65
  42.6342         79
  42.6527         71
  42.6713         83
  42.6899         78
  42.7085         70
  42.7270         74
  42.7456         61
  42.7642         88
  42.7828         74
  42.8013         70
  42.8199         72
  42.8385         67
  42.8571         80
  42.8756         70
  42.8942         72
  42.9128         70
  42.9314         87
  42.9500         68
  42.9685         70
  42.9871         71
  43.0057         65
  43.0243         68
  43.0428         83
  43.0614         58
  43.0800         81
  43.0986         68
  43.1171         69
  43.1357         61
  43.1543         78
  43.1729         80
  43.1914         82
  43.2100         84
  43.2286         86
  43.2472         96
  43.2657         82
  43.2843         88
  43.3029        108
  43.3215         89
  43.3400         82
  43.3586         93
  43.3772         79
  43.3958         73
  43.4143         82
  43.4329         86
  43.4515         97
  43.4701        110
  43.4886        136
  43.5072        128
  43.5258         90
  43.5444        109
  43.5629        113
  43.5815         81
  43.6001        103
  43.6187        111
  43.6372         89
  43.6558         97
  43.6744         82
  43.6930         79
  43.7116         74
  43.7301         79
  43.7487         64
  43.7673         70
  43.7859         78
  43.8044         64
  43.8230         76
  43.8416         64
  43.8602         80
  43.8787         68
  43.8973         88
  43.9159         57
  43.9345         65
  43.9530         65
  43.9716         73
  43.9902         74
  44.0088         78
  44.0273         65
  44.0459         69
  44.0645         70
  44.0831         78
  44.1016         67
  44.1202         85
  44.1388         54
  44.1574         73
  44.1759         72
  44.1945         67
  44.2131         70
  44.2317         74
  44.2502         73
  44.2688         75
  44.2874         63
  44.3060         52
  44.3245         78
  44.3431         74
  44.3617         66
  44.3803         68
  44.3988         63
  44.4174         77
  44.4360         90
  44.4546         87
  44.4732         67
  44.4917         68
  44.5103         68
  44.5289         70
  44.5475         68
  44.5660         86
  44.5846         87
  44.6032         84
  44.6218         83
  44.6403         69
  44.6589         67
  44.6775         77
  44.6961         82
  44.7146         75
  44.7332         73
  44.7518         96
  44.7704         84
  44.7889         88
  44.8075         79
  44.8261         62
  44.8447         59
  44.8632         81
  44.8818         66
  44.9004         73
  44.9190         74
  44.9375         68
  44.9561         88
  44.9747         57
  44.9933         79
  45.0118         77
  45.0304         77
  45.0490         65
  45.0676         55
  45.0861         63
  45.1047         71
  45.1233         62
  45.1419         79
  45.1604         69
  45.1790         53
  45.1976         74
  45.2162         61
  45.2347         75
  45.2533         73
  45.2719         59
  45.2905         64
  45.3091         72
  45.3276         81
  45.3462         57
  45.3648         83
  45.3834         73
  45.4019         84
  45.4205         70
  45.4391         64
  45.4577         68
  45.4762         60
  45.4948         66
  45.5134         64
  45.5320         59
  45.5505         59
  45.5691         85
  45.5877         72
  45.6063         64
  45.6248         54
  45.6434         59
  45.6620         69
  45.6806         63
  45.6991         79
  45.7177         81
  45.7363         72
  45.7549         61
  45.7734         76
  45.7920         59
  45.8106         69
  45.8292         75
  45.8477         66
  45.8663         63
  45.8849         68
  45.9035         60
  45.9220         73
  45.9406         69
  45.9592         67
  45.9778         70
  45.9963         69
  46.0149         69
  46.0335         54
  46.0521         54
  46.0707         55
  46.0892         65
  46.1078         84
  46.1264         62
  46.1450         57
  46.1635         60
  46.1821         72
  46.2007         78
  46.2193         75
  46.2378         67
  46.2564         73
  46.2750         71
  46.2936         66
  46.3121         59
  46.3307         61
  46.3493         72
  46.3679         58
  46.3864         57
  46.4050         58
  46.4236         73
  46.4422         67
  46.4607         70
  46.4793         70
  46.4979         75
  46.5165         71
  46.5350         64
  46.5536         53
  46.5722         58
  46.5908         77
  46.6093         68
  46.6279         78
  46.6465         70
  46.6651         49
  46.6836         74
  46.7022         77
  46.7208         75
  46.7394         61
  46.7579         70
  46.7765         69
  46.7951         72
  46.8137         74
  46.8323         56
  46.8508         61
  46.8694         73
  46.8880         74
  46.9066         63
  46.9251         76
  46.9437         68
  46.9623         58
  46.9809         73
  46.9994         65
  47.0180         63
  47.0366         68
  47.0552         81
  47.0737         62
  47.0923         62
  47.1109         58
  47.1295         72
  47.1480         53
  47.1666         63
  47.1852         71
  47.2038         67
  47.2223         61
  47.2409         71
  47.2595         61
  47.2781         56
  47.2966         60
  47.3152         61
  47.3338         69
  47.3524         72
  47.3709         70
  47.3895         45
  47.4081         59
  47.4267         76
  47.4452         55
  47.4638         75
  47.4824         55
  47.5010         51
  47.5195         52
  47.5381         58
  47.5567         62
  47.5753         73
  47.5939         54
  47.6124         56
  47.6310         63
  47.6496         65
  47.6682         62
  47.6867         61
  47.7053         60
  47.7239         58
  47.7425         58
  47.7610         71
  47.7796         77
  47.7982         67
  47.8168         68
  47.8353         68
  47.8539         58
  47.8725         75
  47.8911         80
  47.9096         68
  47.9282         66
  47.9468         79
  47.9654         67
  47.9839         73
  48.0025         55
  48.0211         45
  48.0397         57
  48.0582         71
  48.0768         78
  48.0954         70
  48.1140         53
  48.1325         56
  48.1511         69
  48.1697         74
  48.1883         66
  48.2068         64
  48.2254         66
  48.2440         65
  48.2626         75
  48.2811         61
  48.2997         53
  48.3183         69
  48.3369         54
  48.3555         61
  48.3740         73
  48.3926         61
  48.4112         69
  48.4298         65
  48.4483         61
  48.4669         57
  48.4855         86
  48.5041         67
  48.5226         60
  48.5412         75
  48.5598         73
  48.5784         74
  48.5969         76
  48.6155         58
  48.6341         65
  48.6527         64
  48.6712         78
  48.6898         72
  48.7084         61
  48.7270         69
  48.7455         81
  48.7641         63
  48.7827         76
  48.8013         55
  48.8198         81
  48.8384         72
  48.8570         64
  48.8756         62
  48.8941         83
  48.9127         76
  48.9313         87
  48.9499        119
  48.9684        101
  48.9870        117
  49.0056         90
  49.0242         86
  49.0427         68
  49.0613         84
  49.0799         85
  49.0985         98
  49.1171         86
  49.1356         75
  49.1542         84
  49.1728         80
  49.1914         55
  49.2099         48
  49.2285         68
  49.2471         76
  49.2657         56
  49.2842         62
  49.3028         79
  49.3214         65
  49.3400         59
  49.3585         53
  49.3771         48
  49.3957         69
  49.4143         74
  49.4328         74
  49.4514         59
  49.4700         61
  49.4886         51
  49.5071         49
  49.5257         38
  49.5443         59
  49.5629         53
  49.5814         75
  49.6000         64
  49.6186         56
  49.6372         59
  49.6557         52
  49.6743         59
  49.6929         63
  49.7115         69
  49.7300         55
  49.7486         72
  49.7672         49
  49.7858         67
  49.8043         51
  49.8229         67
  49.8415         90
  49.8601         61
  49.8786         58
  49.8972         51
  49.9158         70
  49.9344         60
  49.9530         72
  49.9715         49
  49.9901         64
  50.0087         64
  50.0273         66
  50.0458         70
  50.0644         67
  50.0830         66
  50.1016         53
  50.1201         60
  50.1387         79
  50.1573         71
  50.1759         63
  50.1944         70
  50.2130         73
  50.2316         58
  50.2502         74
  50.2687         51
  50.2873         54
  50.3059         63
  50.3245         55
  50.3430         51
  50.3616         54
  50.3802         66
  50.3988         50
  50.4173         68
  50.4359         52
  50.4545         66
  50.4731         52
  50.4916         57
  50.5102         63
  50.5288         65
  50.5474         51
  50.5659         62
  50.5845         54
  50.6031         64
  50.6217         71
  50.6402         66
  50.6588         67
  50.6774         58
  50.6960         52
  50.7146         50
  50.7331         58
  50.7517         63
  50.7703         53
  50.7889         60
  50.8074         54
  50.8260         67
  50.8446         72
  50.8632         63
  50.8817         55
  50.9003         73
  50.9189         54
  50.9375         54
  50.9560         46
  50.9746         66
  50.9932         69
  51.0118         67
  51.0303         56
  51.0489         58
  51.0675         60
  51.0861         63
  51.1046         53
  51.1232         49
  51.1418         56
  51.1604         69
  51.1789         67
  51.1975         69
  51.2161         51
  51.2347         54
  51.2532         66
  51.2718         65
  51.2904         65
  51.3090         66
  51.3275         58
  51.3461         58
  51.3647         62
  51.3833         75
  51.4018         79
  51.4204         61
  51.4390         73
  51.4576         74
  51.4762         70
  51.4947         66
  51.5133         67
  51.5319         67
  51.5505         65
  51.5690         64
  51.5876         70
  51.6062         62
  51.6248         62
  51.6433         79
  51.6619         58
  51.6805         76
  51.6991         49
  51.7176         59
  51.7362         68
  51.7548         61
  51.7734         50
  51.7919         69
  51.8105         67
  51.8291         61
  51.8477         66
  51.8662         59
  51.8848         69
  51.9034         64
  51.9220         74
  51.9405         58
  51.9591         65
  51.9777         57
  51.9963         76
  52.0148         62
  52.0334         64
  52.0520         55
  52.0706         58
  52.0891         58
  52.1077         56
  52.1263         46
  52.1449         61
  52.1634         66
  52.1820         58
  52.2006         58
  52.2192         58
  52.2378         56
  52.2563         49
  52.2749         58
  52.2935         56
  52.3121         43
  52.3306         67
  52.3492         52
  52.3678         67
  52.3864         67
  52.4049         63
  52.4235         63
  52.4421         55
  52.4607         58
  52.4792         49
  52.4978         67
  52.5164         55
  52.5350         69
  52.5535         76
  52.5721         67
  52.5907         55
  52.6093         71
  52.6278         47
  52.6464         40
  52.6650         51
  52.6836         42
  52.7021         51
  52.7207         68
  52.7393         56
  52.7579         52
  52.7764         66
  52.7950         57
  52.8136         71
  52.8322         62
  52.8507         72
  52.8693         64
  52.8879         56
  52.9065         58
  52.9250         68
  52.9436         74
  52.9622         56
  52.9808         55
  52.9994         58
  53.0179         59
  53.0365         67
  53.0551         54
  53.0737         58
  53.0922         54
  53.1108         46
  53.1294         49
  53.1480         57
  53.1665         65
  53.1851         58
  53.2037         56
  53.2223         58
  53.2408         78
  53.2594         61
  53.2780         59
  53.2966         61
  53.3151         71
  53.3337         58
  53.3523         64
  53.3709         51
  53.3894         63
  53.4080         49
  53.4266         56
  53.4452         67
  53.4637         62
  53.4823         49
  53.5009         54
  53.5195         59
  53.5380         61
  53.5566         57
  53.5752         59
  53.5938         58
  53.6123         58
  53.6309         58
  53.6495         65
  53.6681         50
  53.6866         73
  53.7052         54
  53.7238         51
  53.7424         51
  53.7610         73
  53.7795         55
  53.7981         54
  53.8167         54
  53.8353         61
  53.8538         61
  53.8724         59
  53.8910         62
  53.9096         53
  53.9281         77
  53.9467         68
  53.9653         87
  53.9839         65
  54.0024         78
  54.0210         94
  54.0396         59
  54.0582         53
  54.0767         45
  54.0953         64
  54.1139         57
  54.1325         69
  54.1510         60
  54.1696         62
  54.1882         62
  54.2068         57
  54.2253         59
  54.2439         47
  54.2625         52
  54.2811         52
  54.2996         51
  54.3182         52
  54.3368         44
  54.3554         48
  54.3739         56
  54.3925         67
  54.4111         43
  54.4297         53
  54.4482         70
  54.4668         56
  54.4854         61
  54.5040         61
  54.5225         55
  54.5411         47
  54.5597         63
  54.5783         57
  54.5969         54
  54.6154         44
  54.6340         59
  54.6526         55
  54.6712         55
  54.6897         59
  54.7083         44
  54.7269         73
  54.7455         50
  54.7640         56
  54.7826         57
  54.8012         60
  54.8198         52
  54.8383         64
  54.8569         52
  54.8755         66
  54.8941         45
  54.9126         59
  54.9312         61
  54.9498         71
  54.9684         29
  54.9869         57
  55.0055         65
  55.0241         51
  55.0427         63
  55.0612         45
  55.0798         66
  55.0984         53
  55.1170         49
  55.1355         51
  55.1541         47
  55.1727         58
  55.1913         58
  55.2098         49
  55.2284         54
  55.2470         58
  55.2656         66
  55.2841         57
  55.3027         39
  55.3213         41
  55.3399         46
  55.3585         55
  55.3770         44
  55.3956         58
  55.4142         58
  55.4328         42
  55.4513         42
  55.4699         58
  55.4885         51
  55.5071         39
  55.5256         50
  55.5442         61
  55.5628         45
  55.5814         57
  55.5999         56
  55.6185         74
  55.6371         54
  55.6557         63
  55.6742         63
  55.6928         62
  55.7114         56
  55.7300         56
  55.7485         53
  55.7671         55
  55.7857         48
  55.8043         49
  55.8228         53
  55.8414         54
  55.8600         54
  55.8786         53
  55.8971         67
  55.9157         49
  55.9343         62
  55.9529         63
  55.9714         59
  55.9900         59
  56.0086         62
  56.0272         65
  56.0457         59
  56.0643         65
  56.0829         54
  56.1015         55
  56.1201         54
  56.1386         73
  56.1572         67
  56.1758         67
  56.1944         80
  56.2129         61
  56.2315         68
  56.2501         70
  56.2687         50
  56.2872         67
  56.3058         53
  56.3244         65
  56.3430         66
  56.3615         63
  56.3801         66
  56.3987         52
  56.4173         55
  56.4358         61
  56.4544         67
  56.4730         53
  56.4916         70
  56.5101         59
  56.5287         59
  56.5473         43
  56.5659         64
  56.5844         50
  56.6030         55
  56.6216         61
  56.6402         39
  56.6587         66
  56.6773         64
  56.6959         66
  56.7145         48
  56.7330         65
  56.7516         65
  56.7702         50
  56.7888         70
  56.8073         57
  56.8259         79
  56.8445         64
  56.8631         68
  56.8817         56
  56.9002         50
  56.9188         57
  56.9374         64
  56.9560         63
  56.9745         57
  56.9931         46
  57.0117         45
  57.0303         62
  57.0488         49
  57.0674         67
  57.0860         48
  57.1046         41
  57.1231         39
  57.1417         61
  57.1603         55
  57.1789         56
  57.1974         53
  57.2160         50
  57.2346         49
  57.2532         56
  57.2717         60
  57.2903         72
  57.3089         53
  57.3275         46
  57.3460         74
  57.3646         55
  57.3832         57
  57.4018         46
  57.4203         62
  57.4389         64
  57.4575         51
  57.4761         71
  57.4946         58
  57.5132         53
  57.5318         52
  57.5504         59
  57.5689         45
  57.5875         58
  57.6061         62
  57.6247         52
  57.6433         64
  57.6618         44
  57.6804         65
  57.6990         53
  57.7176         45
  57.7361         46
  57.7547         56
  57.7733         65
  57.7919         58
  57.8104         52
  57.8290         52
  57.8476         59
  57.8662         50
  57.8847         53
  57.9033         62
  57.9219         60
  57.9405         62
  57.9590         63
  57.9776         55
  57.9962         56
  58.0148         57
  58.0333         45
  58.0519         56
  58.0705         50
  58.0891         69
  58.1076         58
  58.1262         54
  58.1448         43
  58.1634         63
  58.1819         69
  58.2005         49
  58.2191         62
  58.2377         59
  58.2562         46
  58.2748         56
  58.2934         62
  58.3120         81
  58.3305         66
  58.3491         77
  58.3677         66
  58.3863         62
  58.4049         60
  58.4234         57
  58.4420         61
  58.4606         55
  58.4792         66
  58.4977         58
  58.5163         54
  58.5349         52
  58.5535         51
  58.5720         55
  58.5906         59
  58.6092         46
  58.6278         46
  58.6463         59
  58.6649         40
  58.6835         52
  58.7021         60
  58.7206         60
  58.7392         51
  58.7578         52
  58.7764         52
  58.7949         48
  58.8135         71
  58.8321         47
  58.8507         53
  58.8692         56
  58.8878         45
  58.9064         62
  58.9250         51
  58.9435         49
  58.9621         51
  58.9807         48
  58.9993         52
  59.0178         44
  59.0364         52
  59.0550         53
  59.0736         46
  59.0921         52
  59.1107         61
  59.1293         58
  59.1479         49
  59.1664         51
  59.1850         46
  59.2036         74
  59.2222         46
  59.2408         59
  59.2593         56
  59.2779         57
  59.2965         57
  59.3151         61
  59.3336         57
  59.3522         54
  59.3708         52
  59.3894         67
  59.4079         49
  59.4265         45
  59.4451         56
  59.4637         66
  59.4822         69
  59.5008         61
  59.5194         56
  59.5380         59
  59.5565         58
  59.5751         42
  59.5937         53
  59.6123         60
  59.6308         50
  59.6494         54
  59.6680         55
  59.6866         54
  59.7051         52
  59.7237         58
  59.7423         54
  59.7609         60
  59.7794         48
  59.7980         51
  59.8166         55
  59.8352         51
  59.8537         49
  59.8723         59
  59.8909         66
  59.9095         53
  59.9280         55
  59.9466         55
  59.9652         60
  59.9838         42
  60.0024         51
