;,2THETA,
5.0000,280
5.0186,270
5.0372,259
5.0557,248
5.0743,266
5.0929,244
5.1115,280
5.1300,249
5.1486,247
5.1672,240
5.1858,249
5.2043,224
5.2229,236
5.2415,227
5.2601,248
5.2786,251
5.2972,247
5.3158,257
5.3344,253
5.3529,236
5.3715,263
5.3901,235
5.4087,238
5.4272,229
5.4458,210
5.4644,247
5.4830,223
5.5015,222
5.5201,225
5.5387,242
5.5573,232
5.5758,192
5.5944,199
5.6130,234
5.6316,229
5.6501,215
5.6687,253
5.6873,206
5.7059,203
5.7244,222
5.7430,236
5.7616,230
5.7802,221
5.7988,201
5.8173,187
5.8359,197
5.8545,200
5.8731,192
5.8916,198
5.9102,208
5.9288,210
5.9474,195
5.9659,201
5.9845,227
6.0031,164
6.0217,196
6.0402,173
6.0588,183
6.0774,173
6.0960,197
6.1145,201
6.1331,187
6.1517,156
6.1703,183
6.1888,195
6.2074,200
6.2260,194
6.2446,188
6.2631,189
6.2817,173
6.3003,183
6.3189,193
6.3374,188
6.3560,167
6.3746,172
6.3932,182
6.4117,190
6.4303,155
6.4489,172
6.4675,188
6.4860,177
6.5046,181
6.5232,181
6.5418,183
6.5604,170
6.5789,169
6.5975,160
6.6161,192
6.6347,175
6.6532,162
6.6718,153
6.6904,182
6.7090,157
6.7275,163
6.7461,170
6.7647,204
6.7833,176
6.8018,157
6.8204,159
6.8390,155
6.8576,153
6.8761,136
6.8947,177
6.9133,183
6.9319,149
6.9504,180
6.9690,168
6.9876,179
7.0062,173
7.0247,161
7.0433,149
7.0619,178
7.0805,141
7.0990,154
7.1176,138
7.1362,146
7.1548,144
7.1733,162
7.1919,169
7.2105,171
7.2291,154
7.2476,180
7.2662,165
7.2848,157
7.3034,141
7.3220,164
7.3405,138
7.3591,159
7.3777,143
7.3963,156
7.4148,166
7.4334,174
7.4520,179
7.4706,159
7.4891,143
7.5077,159
7.5263,173
7.5449,156
7.5634,149
7.5820,179
7.6006,166
7.6192,181
7.6377,166
7.6563,196
7.6749,144
7.6935,160
7.7120,185
7.7306,170
7.7492,172
7.7678,167
7.7863,183
7.8049,185
7.8235,186
7.8421,189
7.8606,202
7.8792,202
7.8978,174
7.9164,179
7.9349,186
7.9535,171
7.9721,187
7.9907,197
8.0092,174
8.0278,165
8.0464,173
8.0650,181
8.0835,200
8.1021,200
8.1207,195
8.1393,210
8.1579,173
8.1764,188
8.1950,191
8.2136,194
8.2322,163
8.2507,173
8.2693,208
8.2879,190
8.3065,188
8.3250,204
8.3436,188
8.3622,214
8.3808,225
8.3993,199
8.4179,195
8.4365,200
8.4551,217
8.4736,185
8.4922,204
8.5108,191
8.5294,178
8.5479,219
8.5665,205
8.5851,202
8.6037,189
8.6222,190
8.6408,238
8.6594,203
8.6780,230
8.6965,202
8.7151,203
8.7337,197
8.7523,212
8.7708,217
8.7894,199
8.8080,169
8.8266,232
8.8451,202
8.8637,191
8.8823,207
8.9009,217
8.9195,226
8.9380,196
8.9566,204
8.9752,220
8.9938,203
9.0123,195
9.0309,211
9.0495,221
9.0681,191
9.0866,206
9.1052,201
9.1238,226
9.1424,213
9.1609,227
9.1795,224
9.1981,213
9.2167,213
9.2352,208
9.2538,245
9.2724,241
9.2910,202
9.3095,205
9.3281,232
9.3467,234
9.3653,216
9.3838,230
9.4024,206
9.4210,220
9.4396,221
9.4581,233
9.4767,198
9.4953,235
9.5139,233
9.5324,229
9.5510,231
9.5696,242
9.5882,224
9.6067,235
9.6253,192
9.6439,233
9.6625,228
9.6811,224
9.6996,226
9.7182,237
9.7368,220
9.7554,222
9.7739,232
9.7925,267
9.8111,242
9.8297,250
9.8482,251
9.8668,226
9.8854,222
9.9040,256
9.9225,220
9.9411,251
9.9597,254
9.9783,241
9.9968,270
10.0154,259
10.0340,211
10.0526,243
10.0711,215
10.0897,246
10.1083,247
10.1269,224
10.1454,223
10.1640,264
10.1826,228
10.2012,220
10.2197,251
10.2383,232
10.2569,258
10.2755,250
10.2940,254
10.3126,244
10.3312,254
10.3498,243
10.3683,233
10.3869,211
10.4055,237
10.4241,228
10.4427,284
10.4612,235
10.4798,210
10.4984,242
10.5170,256
10.5355,229
10.5541,246
10.5727,260
10.5913,241
10.6098,241
10.6284,287
10.6470,238
10.6656,222
10.6841,261
10.7027,242
10.7213,255
10.7399,255
10.7584,221
10.7770,257
10.7956,259
10.8142,255
10.8327,256
10.8513,258
10.8699,218
10.8885,236
10.9070,201
10.9256,251
10.9442,235
10.9628,236
10.9813,235
10.9999,260
11.0185,229
11.0371,223
11.0556,233
11.0742,239
11.0928,252
11.1114,230
11.1299,239
11.1485,253
11.1671,247
11.1857,236
11.2043,235
11.2228,232
11.2414,247
11.2600,244
11.2786,274
11.2971,252
11.3157,247
11.3343,230
11.3529,218
11.3714,244
11.3900,251
11.4086,248
11.4272,232
11.4457,245
11.4643,241
11.4829,237
11.5015,223
11.5200,250
11.5386,231
11.5572,228
11.5758,232
11.5943,252
11.6129,227
11.6315,207
11.6501,222
11.6686,236
11.6872,248
11.7058,257
11.7244,240
11.7429,254
11.7615,228
11.7801,238
11.7987,252
11.8172,249
11.8358,211
11.8544,242
11.8730,211
11.8915,224
11.9101,239
11.9287,236
11.9473,247
11.9659,238
11.9844,220
12.0030,230
12.0216,233
12.0402,227
12.0587,211
12.0773,229
12.0959,256
12.1145,252
12.1330,262
12.1516,217
12.1702,239
12.1888,230
12.2073,214
12.2259,213
12.2445,224
12.2631,211
12.2816,210
12.3002,231
12.3188,243
12.3374,219
12.3559,233
12.3745,224
12.3931,192
12.4117,220
12.4302,228
12.4488,253
12.4674,223
12.4860,224
12.5045,212
12.5231,229
12.5417,220
12.5603,227
12.5788,225
12.5974,209
12.6160,209
12.6346,251
12.6531,213
12.6717,221
12.6903,209
12.7089,204
12.7274,210
12.7460,200
12.7646,220
12.7832,218
12.8018,211
12.8203,213
12.8389,207
12.8575,205
12.8761,201
12.8946,202
12.9132,185
12.9318,218
12.9504,200
12.9689,193
12.9875,205
13.0061,212
13.0247,209
13.0432,237
13.0618,215
13.0804,197
13.0990,195
13.1175,206
13.1361,196
13.1547,214
13.1733,190
13.1918,214
13.2104,199
13.2290,203
13.2476,219
13.2661,216
13.2847,221
13.3033,222
13.3219,207
13.3404,204
13.3590,194
13.3776,218
13.3962,212
13.4147,188
13.4333,185
13.4519,190
13.4705,194
13.4890,206
13.5076,205
13.5262,173
13.5448,197
13.5634,198
13.5819,179
13.6005,172
13.6191,190
13.6377,183
13.6562,182
13.6748,201
13.6934,177
13.7120,190
13.7305,173
13.7491,197
13.7677,185
13.7863,208
13.8048,200
13.8234,205
13.8420,226
13.8606,200
13.8791,199
13.8977,176
13.9163,199
13.9349,166
13.9534,171
13.9720,179
13.9906,174
14.0092,199
14.0277,185
14.0463,190
14.0649,187
14.0835,180
14.1020,178
14.1206,173
14.1392,168
14.1578,184
14.1763,169
14.1949,202
14.2135,185
14.2321,161
14.2506,178
14.2692,183
14.2878,188
14.3064,180
14.3250,159
14.3435,185
14.3621,162
14.3807,198
14.3993,205
14.4178,179
14.4364,195
14.4550,172
14.4736,151
14.4921,162
14.5107,174
14.5293,179
14.5479,174
14.5664,182
14.5850,192
14.6036,181
14.6222,174
14.6407,172
14.6593,155
14.6779,172
14.6965,184
14.7150,203
14.7336,199
14.7522,152
14.7708,172
14.7893,184
14.8079,164
14.8265,138
14.8451,173
14.8636,155
14.8822,177
14.9008,169
14.9194,187
14.9379,174
14.9565,163
14.9751,151
14.9937,166
15.0122,131
15.0308,156
15.0494,191
15.0680,163
15.0866,155
15.1051,139
15.1237,175
15.1423,167
15.1609,174
15.1794,168
15.1980,154
15.2166,147
15.2352,190
15.2537,175
15.2723,156
15.2909,154
15.3095,167
15.3280,168
15.3466,178
15.3652,174
15.3838,186
15.4023,150
15.4209,160
15.4395,181
15.4581,186
15.4766,136
15.4952,151
15.5138,182
15.5324,158
15.5509,148
15.5695,154
15.5881,142
15.6067,171
15.6252,186
15.6438,156
15.6624,174
15.6810,161
15.6995,152
15.7181,191
15.7367,121
15.7553,171
15.7738,149
15.7924,175
15.8110,144
15.8296,159
15.8482,153
15.8667,186
15.8853,177
15.9039,178
15.9225,139
15.9410,155
15.9596,166
15.9782,168
15.9968,163
16.0153,150
16.0339,174
16.0525,143
16.0711,168
16.0896,156
16.1082,165
16.1268,161
16.1454,165
16.1639,174
16.1825,158
16.2011,154
16.2197,154
16.2382,181
16.2568,153
16.2754,165
16.2940,179
16.3125,181
16.3311,166
16.3497,172
16.3683,160
16.3868,174
16.4054,156
16.4240,147
16.4426,166
16.4611,157
16.4797,151
16.4983,154
16.5169,168
16.5354,166
16.5540,162
16.5726,156
16.5912,162
16.6097,183
16.6283,167
16.6469,156
16.6655,173
16.6841,167
16.7026,168
16.7212,156
16.7398,166
16.7584,151
16.7769,169
16.7955,176
16.8141,158
16.8327,168
16.8512,140
16.8698,172
16.8884,170
16.9070,160
16.9255,172
16.9441,168
16.9627,173
16.9813,168
16.9998,140
17.0184,141
17.0370,170
17.0556,158
17.0741,149
17.0927,162
17.1113,155
17.1299,139
17.1484,145
17.1670,183
17.1856,162
17.2042,151
17.2227,148
17.2413,155
17.2599,148
17.2785,155
17.2970,170
17.3156,168
17.3342,180
17.3528,154
17.3713,157
17.3899,176
17.4085,171
17.4271,153
17.4457,166
17.4642,165
17.4828,170
17.5014,133
17.5200,178
17.5385,185
17.5571,140
17.5757,167
17.5943,162
17.6128,179
17.6314,196
17.6500,168
17.6686,166
17.6871,168
17.7057,154
17.7243,165
17.7429,183
17.7614,158
17.7800,157
17.7986,161
17.8172,154
17.8357,177
17.8543,152
17.8729,173
17.8915,154
17.9100,166
17.9286,183
17.9472,159
17.9658,154
17.9843,168
18.0029,173
18.0215,180
18.0401,158
18.0586,167
18.0772,183
18.0958,169
18.1144,184
18.1329,193
18.1515,153
18.1701,179
18.1887,155
18.2073,137
18.2258,148
18.2444,180
18.2630,168
18.2816,191
18.3001,157
18.3187,168
18.3373,170
18.3559,136
18.3744,160
18.3930,173
18.4116,168
18.4302,183
18.4487,160
18.4673,181
18.4859,161
18.5045,164
18.5230,159
18.5416,156
18.5602,188
18.5788,168
18.5973,192
18.6159,168
18.6345,171
18.6531,175
18.6716,155
18.6902,179
18.7088,172
18.7274,176
18.7459,153
18.7645,176
18.7831,167
18.8017,165
18.8202,154
18.8388,160
18.8574,147
18.8760,176
18.8945,143
18.9131,151
18.9317,172
18.9503,149
18.9689,189
18.9874,157
19.0060,156
19.0246,150
19.0432,192
19.0617,168
19.0803,174
19.0989,161
19.1175,148
19.1360,152
19.1546,161
19.1732,158
19.1918,187
19.2103,169
19.2289,169
19.2475,165
19.2661,152
19.2846,143
19.3032,182
19.3218,179
19.3404,156
19.3589,153
19.3775,176
19.3961,188
19.4147,164
19.4332,155
19.4518,162
19.4704,168
19.4890,176
19.5075,189
19.5261,156
19.5447,163
19.5633,147
19.5818,187
19.6004,169
19.6190,173
19.6376,194
19.6561,190
19.6747,182
19.6933,189
19.7119,183
19.7305,165
19.7490,156
19.7676,193
19.7862,165
19.8048,199
19.8233,182
19.8419,175
19.8605,171
19.8791,169
19.8976,178
19.9162,164
19.9348,154
19.9534,173
19.9719,180
19.9905,165
20.0091,193
20.0277,164
20.0462,168
20.0648,171
20.0834,187
20.1020,175
20.1205,177
20.1391,172
20.1577,176
20.1763,193
20.1948,182
20.2134,182
20.2320,187
20.2506,187
20.2691,189
20.2877,180
20.3063,198
20.3249,207
20.3434,204
20.3620,187
20.3806,182
20.3992,191
20.4177,163
20.4363,174
20.4549,202
20.4735,199
20.4921,208
20.5106,192
20.5292,178
20.5478,170
20.5664,190
20.5849,181
20.6035,172
20.6221,168
20.6407,193
20.6592,174
20.6778,162
20.6964,191
20.7150,189
20.7335,202
20.7521,192
20.7707,172
20.7893,203
20.8078,181
20.8264,157
20.8450,191
20.8636,211
20.8821,199
20.9007,182
20.9193,184
20.9379,198
20.9564,183
20.9750,214
20.9936,185
21.0122,179
21.0307,186
21.0493,184
21.0679,196
21.0865,194
21.1050,196
21.1236,199
21.1422,196
21.1608,230
21.1793,273
21.1979,293
21.2165,308
21.2351,328
21.2537,319
21.2722,292
21.2908,302
21.3094,334
21.3280,385
21.3465,514
21.3651,550
21.3837,406
21.4023,364
21.4208,350
21.4394,283
21.4580,230
21.4766,202
21.4951,186
21.5137,187
21.5323,173
21.5509,210
21.5694,186
21.5880,213
21.6066,187
21.6252,177
21.6437,196
21.6623,167
21.6809,183
21.6995,190
21.7180,189
21.7366,181
21.7552,186
21.7738,195
21.7923,198
21.8109,199
21.8295,190
21.8481,195
21.8666,185
21.8852,190
21.9038,202
21.9224,213
21.9409,177
21.9595,211
21.9781,193
21.9967,166
22.0152,181
22.0338,178
22.0524,216
22.0710,179
22.0896,159
22.1081,194
22.1267,191
22.1453,188
22.1639,182
22.1824,218
22.2010,203
22.2196,185
22.2382,222
22.2567,201
22.2753,193
22.2939,187
22.3125,184
22.3310,193
22.3496,221
22.3682,190
22.3868,196
22.4053,189
22.4239,221
22.4425,196
22.4611,203
22.4796,191
22.4982,191
22.5168,207
22.5354,206
22.5539,194
22.5725,192
22.5911,210
22.6097,218
22.6282,183
22.6468,206
22.6654,178
22.6840,224
22.7025,209
22.7211,189
22.7397,189
22.7583,194
22.7768,198
22.7954,208
22.8140,202
22.8326,174
22.8512,166
22.8697,223
22.8883,196
22.9069,177
22.9255,180
22.9440,177
22.9626,183
22.9812,191
22.9998,220
23.0183,197
23.0369,198
23.0555,237
23.0741,194
23.0926,176
23.1112,209
23.1298,176
23.1484,207
23.1669,214
23.1855,194
23.2041,195
23.2227,196
23.2412,194
23.2598,215
23.2784,193
23.2970,202
23.3155,219
23.3341,203
23.3527,211
23.3713,220
23.3898,222
23.4084,195
23.4270,208
23.4456,208
23.4641,185
23.4827,212
23.5013,195
23.5199,213
23.5384,171
23.5570,210
23.5756,220
23.5942,181
23.6128,180
23.6313,202
23.6499,226
23.6685,168
23.6871,215
23.7056,202
23.7242,215
23.7428,225
23.7614,218
23.7799,199
23.7985,204
23.8171,190
23.8357,192
23.8542,208
23.8728,182
23.8914,219
23.9100,201
23.9285,208
23.9471,217
23.9657,205
23.9843,209
24.0028,212
24.0214,215
24.0400,223
24.0586,194
24.0771,188
24.0957,213
24.1143,184
24.1329,182
24.1514,192
24.1700,196
24.1886,188
24.2072,199
24.2257,231
24.2443,230
24.2629,230
24.2815,230
24.3000,220
24.3186,231
24.3372,217
24.3558,248
24.3744,205
24.3929,184
24.4115,230
24.4301,202
24.4487,218
24.4672,202
24.4858,208
24.5044,215
24.5230,180
24.5415,192
24.5601,184
24.5787,167
24.5973,221
24.6158,227
24.6344,200
24.6530,187
24.6716,194
24.6901,208
24.7087,214
24.7273,208
24.7459,205
24.7644,209
24.7830,192
24.8016,184
24.8202,202
24.8387,212
24.8573,167
24.8759,213
24.8945,188
24.9130,206
24.9316,181
24.9502,204
24.9688,194
24.9873,188
25.0059,201
25.0245,220
25.0431,201
25.0616,177
25.0802,190
25.0988,205
25.1174,214
25.1360,187
25.1545,181
25.1731,192
25.1917,204
25.2103,176
25.2288,192
25.2474,186
25.2660,206
25.2846,196
25.3031,181
25.3217,192
25.3403,192
25.3589,199
25.3774,197
25.3960,184
25.4146,210
25.4332,194
25.4517,195
25.4703,200
25.4889,205
25.5075,189
25.5260,186
25.5446,187
25.5632,202
25.5818,196
25.6003,199
25.6189,211
25.6375,199
25.6561,233
25.6746,175
25.6932,213
25.7118,168
25.7304,230
25.7489,212
25.7675,193
25.7861,197
25.8047,185
25.8232,205
25.8418,167
25.8604,213
25.8790,217
25.8976,187
25.9161,179
25.9347,182
25.9533,206
25.9719,181
25.9904,201
26.0090,189
26.0276,199
26.0462,185
26.0647,174
26.0833,181
26.1019,160
26.1205,199
26.1390,183
26.1576,181
26.1762,202
26.1948,217
26.2133,192
26.2319,176
26.2505,186
26.2691,212
26.2876,207
26.3062,186
26.3248,182
26.3434,195
26.3619,197
26.3805,171
26.3991,186
26.4177,190
26.4362,193
26.4548,172
26.4734,175
26.4920,188
26.5105,193
26.5291,175
26.5477,189
26.5663,196
26.5848,183
26.6034,189
26.6220,178
26.6406,187
26.6591,199
26.6777,188
26.6963,181
26.7149,175
26.7335,185
26.7520,190
26.7706,191
26.7892,203
26.8078,198
26.8263,187
26.8449,184
26.8635,178
26.8821,178
26.9006,171
26.9192,188
26.9378,180
26.9564,185
26.9749,209
26.9935,162
27.0121,183
27.0307,184
27.0492,198
27.0678,158
27.0864,191
27.1050,177
27.1235,222
27.1421,207
27.1607,237
27.1793,210
27.1978,247
27.2164,244
27.2350,233
27.2536,225
27.2721,225
27.2907,192
27.3093,178
27.3279,181
27.3464,188
27.3650,175
27.3836,191
27.4022,171
27.4207,190
27.4393,187
27.4579,200
27.4765,160
27.4951,160
27.5136,183
27.5322,192
27.5508,183
27.5694,157
27.5879,208
27.6065,191
27.6251,164
27.6437,171
27.6622,173
27.6808,199
27.6994,177
27.7180,172
27.7365,178
27.7551,172
27.7737,175
27.7923,190
27.8108,188
27.8294,191
27.8480,183
27.8666,174
27.8851,186
27.9037,180
27.9223,159
27.9409,195
27.9594,178
27.9780,176
27.9966,169
28.0152,178
28.0337,204
28.0523,180
28.0709,202
28.0895,221
28.1080,162
28.1266,176
28.1452,172
28.1638,179
28.1823,161
28.2009,165
28.2195,186
28.2381,193
28.2567,171
28.2752,172
28.2938,154
28.3124,164
28.3310,170
28.3495,185
28.3681,167
28.3867,168
28.4053,186
28.4238,169
28.4424,162
28.4610,177
28.4796,177
28.4981,172
28.5167,158
28.5353,162
28.5539,159
28.5724,171
28.5910,164
28.6096,177
28.6282,160
28.6467,191
28.6653,162
28.6839,167
28.7025,167
28.7210,180
28.7396,159
28.7582,171
28.7768,177
28.7953,158
28.8139,160
28.8325,146
28.8511,156
28.8696,179
28.8882,176
28.9068,172
28.9254,160
28.9439,150
28.9625,139
28.9811,167
28.9997,158
29.0183,143
29.0368,164
29.0554,144
29.0740,166
29.0926,162
29.1111,165
29.1297,174
29.1483,170
29.1669,170
29.1854,159
29.2040,156
29.2226,162
29.2412,154
29.2597,156
29.2783,174
29.2969,165
29.3155,184
29.3340,154
29.3526,154
29.3712,144
29.3898,146
29.4083,180
29.4269,158
29.4455,157
29.4641,157
29.4826,162
29.5012,159
29.5198,148
29.5384,169
29.5569,157
29.5755,169
29.5941,167
29.6127,145
29.6312,147
29.6498,187
29.6684,155
29.6870,165
29.7055,141
29.7241,163
29.7427,178
29.7613,163
29.7799,148
29.7984,161
29.8170,163
29.8356,165
29.8542,161
29.8727,162
29.8913,144
29.9099,171
29.9285,135
29.9470,153
29.9656,160
29.9842,183
30.0028,134
30.0213,135
30.0399,167
30.0585,149
30.0771,166
30.0956,148
30.1142,170
30.1328,184
30.1514,161
30.1699,160
30.1885,172
30.2071,155
30.2257,182
30.2442,167
30.2628,167
30.2814,160
30.3000,181
30.3185,185
30.3371,190
30.3557,273
30.3743,321
30.3928,337
30.4114,292
30.4300,203
30.4486,225
30.4671,260
30.4857,212
30.5043,209
30.5229,180
30.5415,136
30.5600,161
30.5786,139
30.5972,146
30.6158,151
30.6343,153
30.6529,174
30.6715,190
30.6901,161
30.7086,151
30.7272,138
30.7458,140
30.7644,154
30.7829,138
30.8015,111
30.8201,155
30.8387,159
30.8572,143
30.8758,154
30.8944,136
30.9130,155
30.9315,149
30.9501,167
30.9687,155
30.9873,142
31.0058,145
31.0244,124
31.0430,120
31.0616,144
31.0801,125
31.0987,139
31.1173,140
31.1359,131
31.1544,149
31.1730,136
31.1916,142
31.2102,157
31.2287,157
31.2473,150
31.2659,139
31.2845,143
31.3030,171
31.3216,135
31.3402,133
31.3588,132
31.3774,132
31.3959,112
31.4145,140
31.4331,129
31.4517,149
31.4702,142
31.4888,139
31.5074,116
31.5260,125
31.5445,162
31.5631,160
31.5817,126
31.6003,135
31.6188,128
31.6374,150
31.6560,140
31.6746,146
31.6931,142
31.7117,127
31.7303,137
31.7489,131
31.7674,140
31.7860,138
31.8046,132
31.8232,148
31.8417,147
31.8603,134
31.8789,134
31.8975,145
31.9160,147
31.9346,145
31.9532,134
31.9718,135
31.9903,152
32.0089,136
32.0275,127
32.0461,136
32.0646,127
32.0832,118
32.1018,136
32.1204,122
32.1390,134
32.1575,134
32.1761,129
32.1947,115
32.2133,133
32.2318,159
32.2504,138
32.2690,149
32.2876,143
32.3061,128
32.3247,147
32.3433,136
32.3619,122
32.3804,123
32.3990,128
32.4176,149
32.4362,164
32.4547,163
32.4733,166
32.4919,165
32.5105,155
32.5290,148
32.5476,147
32.5662,150
32.5848,145
32.6033,126
32.6219,138
32.6405,162
32.6591,147
32.6776,128
32.6962,126
32.7148,128
32.7334,130
32.7519,114
32.7705,130
32.7891,122
32.8077,136
32.8262,124
32.8448,140
32.8634,139
32.8820,123
32.9006,119
32.9191,127
32.9377,130
32.9563,133
32.9749,123
32.9934,139
33.0120,102
33.0306,123
33.0492,105
33.0677,136
33.0863,121
33.1049,123
33.1235,138
33.1420,119
33.1606,105
33.1792,112
33.1978,108
33.2163,135
33.2349,152
33.2535,125
33.2721,114
33.2906,122
33.3092,114
33.3278,106
33.3464,122
33.3649,117
33.3835,119
33.4021,117
33.4207,105
33.4392,122
33.4578,120
33.4764,103
33.4950,119
33.5135,129
33.5321,110
33.5507,120
33.5693,124
33.5878,133
33.6064,118
33.6250,110
33.6436,122
33.6622,111
33.6807,118
33.6993,123
33.7179,125
33.7365,114
33.7550,109
33.7736,124
33.7922,128
33.8108,107
33.8293,118
33.8479,113
33.8665,110
33.8851,108
33.9036,122
33.9222,120
33.9408,117
33.9594,102
33.9779,115
33.9965,109
34.0151,115
34.0337,109
34.0522,96
34.0708,106
34.0894,140
34.1080,117
34.1265,108
34.1451,108
34.1637,85
34.1823,110
34.2008,129
34.2194,104
34.2380,122
34.2566,95
34.2751,109
34.2937,114
34.3123,104
34.3309,111
34.3494,115
34.3680,100
34.3866,114
34.4052,125
34.4238,99
34.4423,118
34.4609,114
34.4795,111
34.4981,115
34.5166,112
34.5352,121
34.5538,113
34.5724,116
34.5909,108
34.6095,138
34.6281,133
34.6467,144
34.6652,149
34.6838,131
34.7024,116
34.7210,151
34.7395,155
34.7581,166
34.7767,171
34.7953,146
34.8138,152
34.8324,133
34.8510,154
34.8696,139
34.8881,118
34.9067,118
34.9253,98
34.9439,127
34.9624,118
34.9810,119
34.9996,123
35.0182,107
35.0367,95
35.0553,103
35.0739,100
35.0925,115
35.1110,131
35.1296,80
35.1482,91
35.1668,101
35.1854,96
35.2039,112
35.2225,117
35.2411,105
35.2597,93
35.2782,101
35.2968,108
35.3154,113
35.3340,98
35.3525,101
35.3711,105
35.3897,103
35.4083,90
35.4268,88
35.4454,119
35.4640,97
35.4826,118
35.5011,110
35.5197,111
35.5383,113
35.5569,105
35.5754,107
35.5940,122
35.6126,109
35.6312,95
35.6497,85
35.6683,86
35.6869,93
35.7055,95
35.7240,84
35.7426,97
35.7612,91
35.7798,84
35.7983,102
35.8169,97
35.8355,93
35.8541,85
35.8726,81
35.8912,124
35.9098,78
35.9284,102
35.9469,105
35.9655,95
35.9841,80
36.0027,107
36.0213,113
36.0398,92
36.0584,95
36.0770,90
36.0956,105
36.1141,88
36.1327,92
36.1513,99
36.1699,107
36.1884,99
36.2070,96
36.2256,92
36.2442,97
36.2627,97
36.2813,93
36.2999,107
36.3185,98
36.3370,95
36.3556,80
36.3742,79
36.3928,107
36.4113,99
36.4299,113
36.4485,107
36.4671,99
36.4856,88
36.5042,85
36.5228,107
36.5414,108
36.5599,96
36.5785,91
36.5971,101
36.6157,96
36.6342,94
36.6528,81
36.6714,90
36.6900,71
36.7085,97
36.7271,105
36.7457,89
36.7643,86
36.7829,97
36.8014,85
36.8200,108
36.8386,77
36.8572,86
36.8757,85
36.8943,90
36.9129,90
36.9315,90
36.9500,87
36.9686,83
36.9872,84
37.0058,87
37.0243,102
37.0429,101
37.0615,86
37.0801,90
37.0986,93
37.1172,91
37.1358,105
37.1544,79
37.1729,93
37.1915,100
37.2101,83
37.2287,89
37.2472,96
37.2658,99
37.2844,90
37.3030,89
37.3215,91
37.3401,108
37.3587,92
37.3773,114
37.3958,109
37.4144,117
37.4330,155
37.4516,175
37.4701,107
37.4887,118
37.5073,106
37.5259,116
37.5445,117
37.5630,140
37.5816,107
37.6002,112
37.6188,77
37.6373,94
37.6559,78
37.6745,76
37.6931,87
37.7116,102
37.7302,82
37.7488,96
37.7674,74
37.7859,73
37.8045,104
37.8231,94
37.8417,83
37.8602,101
37.8788,78
37.8974,87
37.9160,78
37.9345,86
37.9531,86
37.9717,77
37.9903,90
38.0088,93
38.0274,84
38.0460,78
38.0646,74
38.0831,85
38.1017,93
38.1203,78
38.1389,82
38.1574,79
38.1760,92
38.1946,94
38.2132,91
38.2317,92
38.2503,71
38.2689,75
38.2875,90
38.3061,83
38.3246,77
38.3432,75
38.3618,96
38.3804,82
38.3989,90
38.4175,87
38.4361,80
38.4547,78
38.4732,69
38.4918,83
38.5104,89
38.5290,95
38.5475,95
38.5661,90
38.5847,86
38.6033,108
38.6218,90
38.6404,84
38.6590,76
38.6776,85
38.6961,73
38.7147,69
38.7333,93
38.7519,83
38.7704,84
38.7890,74
38.8076,73
38.8262,97
38.8447,93
38.8633,79
38.8819,70
38.9005,86
38.9190,95
38.9376,72
38.9562,80
38.9748,95
38.9933,88
39.0119,82
39.0305,91
39.0491,58
39.0677,82
39.0862,94
39.1048,80
39.1234,85
39.1420,79
39.1605,79
39.1791,75
39.1977,79
39.2163,93
39.2348,88
39.2534,89
39.2720,95
39.2906,68
39.3091,94
39.3277,67
39.3463,79
39.3649,80
39.3834,63
39.4020,75
39.4206,77
39.4392,93
39.4577,94
39.4763,76
39.4949,81
39.5135,82
39.5320,80
39.5506,69
39.5692,81
39.5878,72
39.6063,70
39.6249,75
39.6435,79
39.6621,100
39.6806,75
39.6992,82
39.7178,76
39.7364,72
39.7549,53
39.7735,81
39.7921,99
39.8107,76
39.8293,87
39.8478,80
39.8664,80
39.8850,104
39.9036,79
39.9221,68
39.9407,81
39.9593,71
39.9779,93
39.9964,62
40.0150,93
40.0336,77
40.0522,70
40.0707,91
40.0893,75
40.1079,84
40.1265,82
40.1450,71
40.1636,87
40.1822,67
40.2008,69
40.2193,67
40.2379,74
40.2565,87
40.2751,79
40.2936,67
40.3122,69
40.3308,82
40.3494,57
40.3679,80
40.3865,81
40.4051,89
40.4237,77
40.4422,80
40.4608,85
40.4794,71
40.4980,82
40.5165,74
40.5351,87
40.5537,80
40.5723,83
40.5908,80
40.6094,72
40.6280,68
40.6466,81
40.6652,82
40.6837,75
40.7023,69
40.7209,71
40.7395,66
40.7580,74
40.7766,77
40.7952,89
40.8138,50
40.8323,68
40.8509,65
40.8695,65
40.8881,70
40.9066,75
40.9252,76
40.9438,85
40.9624,75
40.9809,65
40.9995,84
41.0181,79
41.0367,83
41.0552,75
41.0738,88
41.0924,70
41.1110,74
41.1295,79
41.1481,78
41.1667,77
41.1853,77
41.2038,67
41.2224,97
41.2410,75
41.2596,71
41.2781,56
41.2967,82
41.3153,78
41.3339,78
41.3524,73
41.3710,66
41.3896,73
41.4082,80
41.4268,86
41.4453,102
41.4639,71
41.4825,57
41.5011,63
41.5196,76
41.5382,65
41.5568,82
41.5754,72
41.5939,74
41.6125,79
41.6311,78
41.6497,75
41.6682,73
41.6868,76
41.7054,78
41.7240,66
41.7425,78
41.7611,74
41.7797,81
41.7983,73
41.8168,78
41.8354,81
41.8540,71
41.8726,90
41.8911,81
41.9097,97
41.9283,61
41.9469,75
41.9654,76
41.9840,89
42.0026,75
42.0212,70
42.0397,86
42.0583,63
42.0769,80
42.0955,69
42.1140,92
42.1326,84
42.1512,86
42.1698,69
42.1884,59
42.2069,78
42.2255,74
42.2441,66
42.2627,72
42.2812,78
42.2998,71
42.3184,74
42.3370,72
42.3555,76
42.3741,75
42.3927,71
42.4113,84
42.4298,68
42.4484,59
42.4670,92
42.4856,80
42.5041,80
42.5227,66
42.5413,73
42.5599,82
42.5784,67
42.5970,73
42.6156,82
42.6342,79
42.6527,68
42.6713,72
42.6899,92
42.7085,84
42.7270,60
42.7456,83
42.7642,65
42.7828,84
42.8013,79
42.8199,66
42.8385,67
42.8571,83
42.8756,81
42.8942,59
42.9128,70
42.9314,72
42.9500,81
42.9685,71
42.9871,64
43.0057,80
43.0243,79
43.0428,84
43.0614,77
43.0800,74
43.0986,60
43.1171,73
43.1357,73
43.1543,94
43.1729,73
43.1914,89
43.2100,74
43.2286,98
43.2472,105
43.2657,103
43.2843,89
43.3029,79
43.3215,86
43.3400,99
43.3586,76
43.3772,80
43.3958,71
43.4143,85
43.4329,80
43.4515,67
43.4701,106
43.4886,118
43.5072,133
43.5258,122
43.5444,108
43.5629,91
43.5815,96
43.6001,119
43.6187,111
43.6372,101
43.6558,87
43.6744,62
43.6930,69
43.7116,77
43.7301,102
43.7487,74
43.7673,75
43.7859,69
43.8044,71
43.8230,82
43.8416,79
43.8602,76
43.8787,67
43.8973,64
43.9159,56
43.9345,77
43.9530,73
43.9716,68
43.9902,82
44.0088,78
44.0273,68
44.0459,84
44.0645,67
44.0831,58
44.1016,65
44.1202,75
44.1388,79
44.1574,62
44.1759,76
44.1945,79
44.2131,51
44.2317,96
44.2502,94
44.2688,80
44.2874,74
44.3060,69
44.3245,86
44.3431,78
44.3617,89
44.3803,72
44.3988,83
44.4174,70
44.4360,75
44.4546,93
44.4732,82
44.4917,72
44.5103,66
44.5289,51
44.5475,80
44.5660,80
44.5846,73
44.6032,79
44.6218,69
44.6403,80
44.6589,83
44.6775,71
44.6961,76
44.7146,85
44.7332,68
44.7518,83
44.7704,69
44.7889,75
44.8075,77
44.8261,71
44.8447,73
44.8632,67
44.8818,68
44.9004,66
44.9190,66
44.9375,79
44.9561,72
44.9747,68
44.9933,82
45.0118,77
45.0304,55
45.0490,76
45.0676,62
45.0861,77
45.1047,75
45.1233,69
45.1419,70
45.1604,70
45.1790,66
45.1976,63
45.2162,69
45.2347,64
45.2533,70
45.2719,70
45.2905,90
45.3091,62
45.3276,76
45.3462,69
45.3648,72
45.3834,55
45.4019,74
45.4205,58
45.4391,82
45.4577,63
45.4762,62
45.4948,75
45.5134,59
45.5320,73
45.5505,61
45.5691,73
45.5877,57
45.6063,60
45.6248,70
45.6434,79
45.6620,67
45.6806,72
45.6991,55
45.7177,70
45.7363,67
45.7549,89
45.7734,66
45.7920,71
45.8106,67
45.8292,69
45.8477,66
45.8663,72
45.8849,59
45.9035,73
45.9220,51
45.9406,73
45.9592,79
45.9778,85
45.9963,75
46.0149,59
46.0335,72
46.0521,77
46.0707,62
46.0892,71
46.1078,61
46.1264,60
46.1450,57
46.1635,66
46.1821,72
46.2007,65
46.2193,70
46.2378,64
46.2564,61
46.2750,71
46.2936,58
46.3121,72
46.3307,61
46.3493,66
46.3679,76
46.3864,78
46.4050,81
46.4236,76
46.4422,74
46.4607,56
46.4793,52
46.4979,67
46.5165,63
46.5350,63
46.5536,66
46.5722,72
46.5908,67
46.6093,70
46.6279,59
46.6465,61
46.6651,84
46.6836,65
46.7022,80
46.7208,51
46.7394,68
46.7579,70
46.7765,62
46.7951,70
46.8137,73
46.8323,56
46.8508,68
46.8694,60
46.8880,67
46.9066,68
46.9251,71
46.9437,63
46.9623,68
46.9809,63
46.9994,53
47.0180,83
47.0366,71
47.0552,70
47.0737,72
47.0923,57
47.1109,75
47.1295,75
47.1480,60
47.1666,62
47.1852,66
47.2038,65
47.2223,60
47.2409,68
47.2595,45
47.2781,57
47.2966,63
47.3152,66
47.3338,59
47.3524,58
47.3709,74
47.3895,59
47.4081,50
47.4267,61
47.4452,69
47.4638,76
47.4824,80
47.5010,52
47.5195,55
47.5381,60
47.5567,55
47.5753,73
47.5939,50
47.6124,54
47.6310,72
47.6496,64
47.6682,73
47.6867,69
47.7053,63
47.7239,69
47.7425,53
47.7610,50
47.7796,53
47.7982,60
47.8168,59
47.8353,55
47.8539,80
47.8725,66
47.8911,71
47.9096,60
47.9282,65
47.9468,73
47.9654,68
47.9839,54
48.0025,53
48.0211,65
48.0397,58
48.0582,70
48.0768,77
48.0954,59
48.1140,61
48.1325,73
48.1511,69
48.1697,59
48.1883,67
48.2068,55
48.2254,65
48.2440,56
48.2626,63
48.2811,69
48.2997,65
48.3183,63
48.3369,75
48.3555,61
48.3740,49
48.3926,58
48.4112,70
48.4298,76
48.4483,59
48.4669,55
48.4855,64
48.5041,68
48.5226,70
48.5412,55
48.5598,70
48.5784,66
48.5969,60
48.6155,56
48.6341,53
48.6527,68
48.6712,67
48.6898,50
48.7084,63
48.7270,74
48.7455,60
48.7641,68
48.7827,71
48.8013,67
48.8198,72
48.8384,78
48.8570,78
48.8756,74
48.8941,77
48.9127,63
48.9313,97
48.9499,118
48.9684,110
48.9870,115
49.0056,100
49.0242,71
49.0427,75
49.0613,80
49.0799,99
49.0985,102
49.1171,73
49.1356,83
49.1542,82
49.1728,57
49.1914,63
49.2099,60
49.2285,66
49.2471,52
49.2657,68
49.2842,62
49.3028,71
49.3214,73
49.3400,57
49.3585,41
49.3771,59
49.3957,52
49.4143,66
49.4328,66
49.4514,55
49.4700,63
49.4886,58
49.5071,61
49.5257,69
49.5443,74
49.5629,68
49.5814,54
49.6000,50
49.6186,62
49.6372,53
49.6557,67
49.6743,61
49.6929,58
49.7115,67
49.7300,67
49.7486,74
49.7672,56
49.7858,67
49.8043,61
49.8229,59
49.8415,65
49.8601,67
49.8786,54
49.8972,51
49.9158,62
49.9344,61
49.9530,63
49.9715,78
49.9901,56
50.0087,67
50.0273,73
50.0458,65
50.0644,65
50.0830,53
50.1016,71
50.1201,62
50.1387,59
50.1573,61
50.1759,62
50.1944,47
50.2130,74
50.2316,56
50.2502,62
50.2687,52
50.2873,57
50.3059,81
50.3245,64
50.3430,74
50.3616,63
50.3802,56
50.3988,67
50.4173,72
50.4359,57
50.4545,76
50.4731,55
50.4916,58
50.5102,45
50.5288,64
50.5474,56
50.5659,62
50.5845,62
50.6031,66
50.6217,57
50.6402,52
50.6588,54
50.6774,62
50.6960,65
50.7146,63
50.7331,40
50.7517,65
50.7703,52
50.7889,66
50.8074,54
50.8260,53
50.8446,47
50.8632,65
50.8817,60
50.9003,63
50.9189,55
50.9375,76
50.9560,64
50.9746,63
50.9932,65
51.0118,54
51.0303,56
51.0489,65
51.0675,58
51.0861,59
51.1046,70
51.1232,66
51.1418,65
51.1604,57
51.1789,66
51.1975,68
51.2161,68
51.2347,52
51.2532,63
51.2718,64
51.2904,49
51.3090,71
51.3275,64
51.3461,71
51.3647,79
51.3833,81
51.4018,70
51.4204,59
51.4390,74
51.4576,54
51.4762,70
51.4947,50
51.5133,59
51.5319,61
51.5505,62
51.5690,61
51.5876,75
51.6062,68
51.6248,59
51.6433,65
51.6619,69
51.6805,71
51.6991,64
51.7176,57
51.7362,65
51.7548,54
51.7734,69
51.7919,68
51.8105,72
51.8291,50
51.8477,80
51.8662,78
51.8848,50
51.9034,64
51.9220,56
51.9405,65
51.9591,46
51.9777,70
51.9963,76
52.0148,58
52.0334,56
52.0520,64
52.0706,61
52.0891,48
52.1077,54
52.1263,57
52.1449,51
52.1634,61
52.1820,56
52.2006,63
52.2192,58
52.2378,70
52.2563,54
52.2749,46
52.2935,76
52.3121,61
52.3306,61
52.3492,61
52.3678,55
52.3864,49
52.4049,62
52.4235,57
52.4421,52
52.4607,68
52.4792,66
52.4978,80
52.5164,52
52.5350,54
52.5535,54
52.5721,69
52.5907,50
52.6093,44
52.6278,40
52.6464,61
52.6650,53
52.6836,51
52.7021,62
52.7207,45
52.7393,61
52.7579,65
52.7764,63
52.7950,60
52.8136,45
52.8322,59
52.8507,71
52.8693,49
52.8879,57
52.9065,76
52.9250,67
52.9436,69
52.9622,51
52.9808,58
52.9994,68
53.0179,64
53.0365,65
53.0551,53
53.0737,49
53.0922,62
53.1108,47
53.1294,71
53.1480,68
53.1665,58
53.1851,59
53.2037,69
53.2223,55
53.2408,63
53.2594,52
53.2780,60
53.2966,46
53.3151,73
53.3337,70
53.3523,52
53.3709,50
53.3894,50
53.4080,55
53.4266,59
53.4452,71
53.4637,61
53.4823,57
53.5009,57
53.5195,62
53.5380,51
53.5566,63
53.5752,52
53.5938,59
53.6123,44
53.6309,57
53.6495,66
53.6681,82
53.6866,57
53.7052,61
53.7238,59
53.7424,64
53.7610,54
53.7795,60
53.7981,67
53.8167,54
53.8353,49
53.8538,50
53.8724,60
53.8910,64
53.9096,54
53.9281,62
53.9467,74
53.9653,81
53.9839,85
54.0024,77
54.0210,97
54.0396,64
54.0582,63
54.0767,63
54.0953,73
54.1139,66
54.1325,82
54.1510,61
54.1696,60
54.1882,59
54.2068,59
54.2253,67
54.2439,47
54.2625,53
54.2811,60
54.2996,55
54.3182,67
54.3368,67
54.3554,51
54.3739,72
54.3925,50
54.4111,63
54.4297,62
54.4482,63
54.4668,57
54.4854,64
54.5040,62
54.5225,62
54.5411,59
54.5597,73
54.5783,59
54.5969,64
54.6154,65
54.6340,64
54.6526,50
54.6712,50
54.6897,53
54.7083,58
54.7269,61
54.7455,69
54.7640,44
54.7826,61
54.8012,71
54.8198,52
54.8383,68
54.8569,52
54.8755,65
54.8941,56
54.9126,61
54.9312,64
54.9498,45
54.9684,58
54.9869,59
55.0055,54
55.0241,60
55.0427,49
55.0612,52
55.0798,56
55.0984,67
55.1170,59
55.1355,47
55.1541,57
55.1727,58
55.1913,49
55.2098,50
55.2284,58
55.2470,65
55.2656,60
55.2841,58
55.3027,64
55.3213,63
55.3399,57
55.3585,59
55.3770,53
55.3956,55
55.4142,52
55.4328,71
55.4513,73
55.4699,52
55.4885,58
55.5071,52
55.5256,50
55.5442,46
55.5628,44
55.5814,52
55.5999,49
55.6185,65
55.6371,52
55.6557,58
55.6742,59
55.6928,54
55.7114,64
55.7300,46
55.7485,56
55.7671,53
55.7857,59
55.8043,60
55.8228,66
55.8414,53
55.8600,56
55.8786,53
55.8971,51
55.9157,57
55.9343,56
55.9529,62
55.9714,60
55.9900,59
56.0086,56
56.0272,53
56.0457,56
56.0643,67
56.0829,67
56.1015,62
56.1201,79
56.1386,71
56.1572,59
56.1758,63
56.1944,61
56.2129,53
56.2315,68
56.2501,56
56.2687,59
56.2872,56
56.3058,60
56.3244,60
56.3430,62
56.3615,44
56.3801,61
56.3987,60
56.4173,84
56.4358,66
56.4544,62
56.4730,59
56.4916,55
56.5101,58
56.5287,69
56.5473,62
56.5659,52
56.5844,66
56.6030,49
56.6216,43
56.6402,67
56.6587,53
56.6773,57
56.6959,77
56.7145,60
56.7330,58
56.7516,60
56.7702,59
56.7888,48
56.8073,51
56.8259,52
56.8445,56
56.8631,44
56.8817,62
56.9002,62
56.9188,53
56.9374,60
56.9560,34
56.9745,42
56.9931,61
57.0117,57
57.0303,54
57.0488,59
57.0674,56
57.0860,56
57.1046,62
57.1231,55
57.1417,55
57.1603,56
57.1789,61
57.1974,67
57.2160,56
57.2346,54
57.2532,69
57.2717,59
57.2903,53
57.3089,54
57.3275,52
57.3460,53
57.3646,53
57.3832,59
57.4018,63
57.4203,53
57.4389,39
57.4575,61
57.4761,49
57.4946,53
57.5132,55
57.5318,44
57.5504,54
57.5689,49
57.5875,42
57.6061,62
57.6247,69
57.6433,50
57.6618,41
57.6804,71
57.6990,61
57.7176,71
57.7361,63
57.7547,50
57.7733,50
57.7919,61
57.8104,71
57.8290,56
57.8476,48
57.8662,56
57.8847,47
57.9033,64
57.9219,71
57.9405,61
57.9590,67
57.9776,42
57.9962,57
58.0148,62
58.0333,40
58.0519,52
58.0705,47
58.0891,59
58.1076,57
58.1262,57
58.1448,65
58.1634,55
58.1819,47
58.2005,44
58.2191,54
58.2377,50
58.2562,52
58.2748,66
58.2934,63
58.3120,50
58.3305,60
58.3491,55
58.3677,65
58.3863,43
58.4049,58
58.4234,67
58.4420,50
58.4606,57
58.4792,53
58.4977,51
58.5163,62
58.5349,53
58.5535,70
58.5720,71
58.5906,68
58.6092,54
58.6278,46
58.6463,49
58.6649,56
58.6835,51
58.7021,49
58.7206,53
58.7392,58
58.7578,52
58.7764,54
58.7949,57
58.8135,58
58.8321,52
58.8507,48
58.8692,52
58.8878,71
58.9064,54
58.9250,55
58.9435,47
58.9621,64
58.9807,47
58.9993,49
59.0178,59
59.0364,34
59.0550,57
59.0736,50
59.0921,54
59.1107,51
59.1293,48
59.1479,59
59.1664,67
59.1850,44
59.2036,61
59.2222,59
59.2408,57
59.2593,66
59.2779,60
59.2965,57
59.3151,51
59.3336,52
59.3522,42
59.3708,47
59.3894,56
59.4079,55
59.4265,69
59.4451,61
59.4637,43
59.4822,62
59.5008,50
59.5194,55
59.5380,49
59.5565,67
59.5751,52
59.5937,59
59.6123,67
59.6308,56
59.6494,64
59.6680,48
59.6866,58
59.7051,55
59.7237,57
59.7423,63
59.7609,51
59.7794,61
59.7980,54
59.8166,53
59.8352,71
59.8537,65
59.8723,62
59.8909,52
59.9095,58
59.9280,52
59.9466,71
59.9652,46
59.9838,46
60.0024,44
