;,2THETA,
5.0000,152
5.0186,146
5.0372,135
5.0557,127
5.0743,124
5.0929,118
5.1115,114
5.1300,137
5.1486,124
5.1672,121
5.1858,106
5.2043,134
5.2229,108
5.2415,129
5.2601,115
5.2786,126
5.2972,125
5.3158,110
5.3344,138
5.3529,115
5.3715,104
5.3901,100
5.4087,120
5.4272,123
5.4458,116
5.4644,121
5.4830,133
5.5015,122
5.5201,108
5.5387,121
5.5573,114
5.5758,105
5.5944,132
5.6130,97
5.6316,111
5.6501,126
5.6687,99
5.6873,109
5.7059,113
5.7244,107
5.7430,107
5.7616,119
5.7802,109
5.7988,114
5.8173,122
5.8359,119
5.8545,92
5.8731,97
5.8916,102
5.9102,89
5.9288,92
5.9474,107
5.9659,108
5.9845,106
6.0031,104
6.0217,96
6.0402,81
6.0588,96
6.0774,107
6.0960,93
6.1145,107
6.1331,90
6.1517,91
6.1703,90
6.1888,93
6.2074,85
6.2260,86
6.2446,97
6.2631,90
6.2817,73
6.3003,93
6.3189,93
6.3374,87
6.3560,88
6.3746,86
6.3932,105
6.4117,101
6.4303,98
6.4489,88
6.4675,110
6.4860,77
6.5046,79
6.5232,78
6.5418,88
6.5604,94
6.5789,91
6.5975,94
6.6161,75
6.6347,91
6.6532,94
6.6718,116
6.6904,78
6.7090,81
6.7275,80
6.7461,94
6.7647,69
6.7833,78
6.8018,67
6.8204,73
6.8390,78
6.8576,94
6.8761,79
6.8947,78
6.9133,86
6.9319,90
6.9504,87
6.9690,68
6.9876,72
7.0062,75
7.0247,97
7.0433,79
7.0619,91
7.0805,82
7.0990,85
7.1176,76
7.1362,99
7.1548,80
7.1733,97
7.1919,82
7.2105,84
7.2291,79
7.2476,66
7.2662,65
7.2848,87
7.3034,56
7.3220,79
7.3405,81
7.3591,88
7.3777,68
7.3963,84
7.4148,92
7.4334,75
7.4520,75
7.4706,82
7.4891,77
7.5077,94
7.5263,82
7.5449,82
7.5634,89
7.5820,81
7.6006,98
7.6192,103
7.6377,89
7.6563,85
7.6749,98
7.6935,86
7.7120,83
7.7306,104
7.7492,79
7.7678,87
7.7863,81
7.8049,95
7.8235,93
7.8421,74
7.8606,111
7.8792,97
7.8978,79
7.9164,89
7.9349,95
7.9535,101
7.9721,86
7.9907,100
8.0092,107
8.0278,106
8.0464,82
8.0650,89
8.0835,92
8.1021,90
8.1207,92
8.1393,93
8.1579,91
8.1764,98
8.1950,74
8.2136,82
8.2322,99
8.2507,98
8.2693,107
8.2879,90
8.3065,94
8.3250,100
8.3436,94
8.3622,98
8.3808,104
8.3993,101
8.4179,91
8.4365,107
8.4551,104
8.4736,96
8.4922,110
8.5108,97
8.5294,98
8.5479,99
8.5665,105
8.5851,87
8.6037,85
8.6222,89
8.6408,85
8.6594,99
8.6780,103
8.6965,71
8.7151,121
8.7337,115
8.7523,108
8.7708,104
8.7894,106
8.8080,115
8.8266,93
8.8451,96
8.8637,113
8.8823,97
8.9009,91
8.9195,111
8.9380,113
8.9566,99
8.9752,88
8.9938,107
9.0123,110
9.0309,135
9.0495,109
9.0681,103
9.0866,116
9.1052,124
9.1238,117
9.1424,117
9.1609,97
9.1795,117
9.1981,97
9.2167,105
9.2352,130
9.2538,102
9.2724,116
9.2910,115
9.3095,100
9.3281,96
9.3467,124
9.3653,115
9.3838,117
9.4024,99
9.4210,107
9.4396,109
9.4581,106
9.4767,113
9.4953,123
9.5139,114
9.5324,107
9.5510,115
9.5696,111
9.5882,114
9.6067,97
9.6253,113
9.6439,100
9.6625,108
9.6811,127
9.6996,109
9.7182,118
9.7368,125
9.7554,111
9.7739,130
9.7925,119
9.8111,148
9.8297,113
9.8482,122
9.8668,115
9.8854,132
9.9040,122
9.9225,132
9.9411,123
9.9597,125
9.9783,125
9.9968,131
10.0154,104
10.0340,117
10.0526,92
10.0711,116
10.0897,108
10.1083,114
10.1269,127
10.1454,122
10.1640,137
10.1826,109
10.2012,111
10.2197,111
10.2383,122
10.2569,122
10.2755,126
10.2940,126
10.3126,133
10.3312,130
10.3498,130
10.3683,128
10.3869,118
10.4055,121
10.4241,106
10.4427,139
10.4612,119
10.4798,114
10.4984,112
10.5170,129
10.5355,107
10.5541,97
10.5727,133
10.5913,119
10.6098,125
10.6284,132
10.6470,113
10.6656,113
10.6841,103
10.7027,133
10.7213,109
10.7399,117
10.7584,123
10.7770,128
10.7956,117
10.8142,140
10.8327,110
10.8513,119
10.8699,107
10.8885,132
10.9070,121
10.9256,109
10.9442,112
10.9628,124
10.9813,117
10.9999,104
11.0185,128
11.0371,115
11.0556,118
11.0742,128
11.0928,107
11.1114,123
11.1299,110
11.1485,109
11.1671,134
11.1857,103
11.2043,101
11.2228,131
11.2414,127
11.2600,120
11.2786,115
11.2971,110
11.3157,102
11.3343,134
11.3529,115
11.3714,104
11.3900,111
11.4086,107
11.4272,108
11.4457,121
11.4643,90
11.4829,109
11.5015,131
11.5200,124
11.5386,112
11.5572,106
11.5758,130
11.5943,106
11.6129,107
11.6315,107
11.6501,105
11.6686,114
11.6872,109
11.7058,133
11.7244,113
11.7429,113
11.7615,117
11.7801,107
11.7987,114
11.8172,116
11.8358,113
11.8544,115
11.8730,123
11.8915,108
11.9101,112
11.9287,110
11.9473,117
11.9659,117
11.9844,122
12.0030,122
12.0216,129
12.0402,106
12.0587,131
12.0773,103
12.0959,115
12.1145,96
12.1330,102
12.1516,135
12.1702,112
12.1888,100
12.2073,108
12.2259,108
12.2445,109
12.2631,110
12.2816,107
12.3002,108
12.3188,127
12.3374,93
12.3559,103
12.3745,98
12.3931,109
12.4117,108
12.4302,99
12.4488,104
12.4674,101
12.4860,113
12.5045,127
12.5231,107
12.5417,97
12.5603,109
12.5788,100
12.5974,93
12.6160,95
12.6346,94
12.6531,118
12.6717,118
12.6903,97
12.7089,95
12.7274,110
12.7460,106
12.7646,109
12.7832,99
12.8018,106
12.8203,106
12.8389,106
12.8575,94
12.8761,97
12.8946,99
12.9132,99
12.9318,97
12.9504,102
12.9689,114
12.9875,90
13.0061,89
13.0247,96
13.0432,103
13.0618,102
13.0804,111
13.0990,84
13.1175,104
13.1361,93
13.1547,116
13.1733,96
13.1918,95
13.2104,98
13.2290,110
13.2476,108
13.2661,97
13.2847,81
13.3033,80
13.3219,109
13.3404,89
13.3590,100
13.3776,88
13.3962,97
13.4147,109
13.4333,106
13.4519,85
13.4705,100
13.4890,85
13.5076,112
13.5262,79
13.5448,91
13.5634,82
13.5819,90
13.6005,93
13.6191,83
13.6377,97
13.6562,92
13.6748,86
13.6934,95
13.7120,105
13.7305,102
13.7491,78
13.7677,106
13.7863,95
13.8048,90
13.8234,87
13.8420,98
13.8606,99
13.8791,94
13.8977,114
13.9163,91
13.9349,95
13.9534,83
13.9720,88
13.9906,83
14.0092,93
14.0277,87
14.0463,90
14.0649,85
14.0835,83
14.1020,95
14.1206,86
14.1392,83
14.1578,93
14.1763,83
14.1949,93
14.2135,83
14.2321,94
14.2506,73
14.2692,87
14.2878,79
14.3064,92
14.3250,80
14.3435,98
14.3621,80
14.3807,82
14.3993,80
14.4178,79
14.4364,85
14.4550,82
14.4736,99
14.4921,87
14.5107,88
14.5293,64
14.5479,81
14.5664,69
14.5850,83
14.6036,77
14.6222,96
14.6407,80
14.6593,79
14.6779,80
14.6965,97
14.7150,75
14.7336,82
14.7522,88
14.7708,83
14.7893,84
14.8079,88
14.8265,103
14.8451,83
14.8636,88
14.8822,80
14.9008,90
14.9194,89
14.9379,93
14.9565,81
14.9751,74
14.9937,87
15.0122,94
15.0308,79
15.0494,82
15.0680,70
15.0866,76
15.1051,95
15.1237,83
15.1423,89
15.1609,85
15.1794,86
15.1980,75
15.2166,60
15.2352,82
15.2537,82
15.2723,67
15.2909,96
15.3095,76
15.3280,83
15.3466,98
15.3652,90
15.3838,69
15.4023,75
15.4209,88
15.4395,67
15.4581,88
15.4766,76
15.4952,80
15.5138,95
15.5324,88
15.5509,84
15.5695,85
15.5881,77
15.6067,83
15.6252,89
15.6438,74
15.6624,73
15.6810,83
15.6995,79
15.7181,83
15.7367,88
15.7553,85
15.7738,83
15.7924,78
15.8110,82
15.8296,67
15.8482,93
15.8667,88
15.8853,100
15.9039,78
15.9225,92
15.9410,90
15.9596,81
15.9782,77
15.9968,93
16.0153,81
16.0339,80
16.0525,72
16.0711,74
16.0896,85
16.1082,77
16.1268,99
16.1454,74
16.1639,78
16.1825,65
16.2011,75
16.2197,89
16.2382,68
16.2568,78
16.2754,87
16.2940,98
16.3125,80
16.3311,63
16.3497,75
16.3683,89
16.3868,66
16.4054,85
16.4240,69
16.4426,71
16.4611,84
16.4797,81
16.4983,80
16.5169,87
16.5354,72
16.5540,89
16.5726,85
16.5912,80
16.6097,89
16.6283,92
16.6469,93
16.6655,77
16.6841,84
16.7026,96
16.7212,71
16.7398,80
16.7584,94
16.7769,79
16.7955,89
16.8141,79
16.8327,75
16.8512,71
16.8698,90
16.8884,81
16.9070,73
16.9255,79
16.9441,84
16.9627,91
16.9813,76
16.9998,77
17.0184,76
17.0370,83
17.0556,85
17.0741,83
17.0927,75
17.1113,75
17.1299,87
17.1484,74
17.1670,78
17.1856,70
17.2042,71
17.2227,79
17.2413,63
17.2599,85
17.2785,83
17.2970,60
17.3156,64
17.3342,68
17.3528,79
17.3713,79
17.3899,68
17.4085,90
17.4271,90
17.4457,71
17.4642,75
17.4828,80
17.5014,86
17.5200,87
17.5385,82
17.5571,83
17.5757,69
17.5943,79
17.6128,68
17.6314,82
17.6500,71
17.6686,90
17.6871,78
17.7057,85
17.7243,77
17.7429,72
17.7614,76
17.7800,78
17.7986,81
17.8172,96
17.8357,85
17.8543,90
17.8729,82
17.8915,94
17.9100,86
17.9286,72
17.9472,80
17.9658,94
17.9843,85
18.0029,80
18.0215,75
18.0401,63
18.0586,78
18.0772,82
18.0958,88
18.1144,79
18.1329,108
18.1515,74
18.1701,76
18.1887,96
18.2073,68
18.2258,83
18.2444,86
18.2630,65
18.2816,69
18.3001,79
18.3187,88
18.3373,88
18.3559,82
18.3744,78
18.3930,90
18.4116,71
18.4302,96
18.4487,83
18.4673,67
18.4859,67
18.5045,84
18.5230,87
18.5416,92
18.5602,82
18.5788,82
18.5973,84
18.6159,73
18.6345,93
18.6531,77
18.6716,71
18.6902,69
18.7088,66
18.7274,89
18.7459,81
18.7645,95
18.7831,88
18.8017,92
18.8202,86
18.8388,92
18.8574,79
18.8760,82
18.8945,88
18.9131,76
18.9317,73
18.9503,73
18.9689,83
18.9874,73
19.0060,95
19.0246,80
19.0432,84
19.0617,74
19.0803,64
19.0989,87
19.1175,88
19.1360,101
19.1546,80
19.1732,82
19.1918,92
19.2103,67
19.2289,84
19.2475,68
19.2661,76
19.2846,82
19.3032,80
19.3218,89
19.3404,83
19.3589,90
19.3775,91
19.3961,85
19.4147,77
19.4332,85
19.4518,94
19.4704,87
19.4890,73
19.5075,91
19.5261,86
19.5447,81
19.5633,78
19.5818,86
19.6004,83
19.6190,88
19.6376,92
19.6561,109
19.6747,85
19.6933,93
19.7119,100
19.7305,79
19.7490,95
19.7676,86
19.7862,88
19.8048,92
19.8233,82
19.8419,93
19.8605,92
19.8791,85
19.8976,82
19.9162,75
19.9348,78
19.9534,93
19.9719,100
19.9905,98
20.0091,98
20.0277,97
20.0462,80
20.0648,99
20.0834,102
20.1020,100
20.1205,94
20.1391,99
20.1577,81
20.1763,90
20.1948,99
20.2134,87
20.2320,98
20.2506,82
20.2691,70
20.2877,72
20.3063,84
20.3249,97
20.3434,97
20.3620,86
20.3806,79
20.3992,100
20.4177,101
20.4363,94
20.4549,95
20.4735,87
20.4921,85
20.5106,83
20.5292,82
20.5478,81
20.5664,104
20.5849,85
20.6035,108
20.6221,87
20.6407,99
20.6592,97
20.6778,85
20.6964,108
20.7150,92
20.7335,80
20.7521,98
20.7707,81
20.7893,108
20.8078,96
20.8264,98
20.8450,109
20.8636,91
20.8821,91
20.9007,80
20.9193,101
20.9379,99
20.9564,100
20.9750,92
20.9936,93
21.0122,100
21.0307,104
21.0493,105
21.0679,99
21.0865,114
21.1050,86
21.1236,109
21.1422,119
21.1608,136
21.1793,119
21.1979,138
21.2165,153
21.2351,150
21.2537,148
21.2722,149
21.2908,148
21.3094,147
21.3280,182
21.3465,217
21.3651,269
21.3837,208
21.4023,195
21.4208,179
21.4394,124
21.4580,120
21.4766,113
21.4951,106
21.5137,81
21.5323,112
21.5509,95
21.5694,93
21.5880,121
21.6066,104
21.6252,96
21.6437,90
21.6623,86
21.6809,98
21.6995,88
21.7180,92
21.7366,91
21.7552,89
21.7738,89
21.7923,98
21.8109,102
21.8295,95
21.8481,92
21.8666,93
21.8852,113
21.9038,81
21.9224,91
21.9409,87
21.9595,112
21.9781,80
21.9967,75
22.0152,99
22.0338,94
22.0524,108
22.0710,114
22.0896,100
22.1081,103
22.1267,101
22.1453,84
22.1639,94
22.1824,104
22.2010,102
22.2196,94
22.2382,98
22.2567,96
22.2753,82
22.2939,98
22.3125,77
22.3310,87
22.3496,98
22.3682,98
22.3868,99
22.4053,86
22.4239,91
22.4425,82
22.4611,81
22.4796,108
22.4982,101
22.5168,113
22.5354,106
22.5539,87
22.5725,109
22.5911,105
22.6097,100
22.6282,118
22.6468,93
22.6654,101
22.6840,95
22.7025,88
22.7211,89
22.7397,95
22.7583,102
22.7768,99
22.7954,90
22.8140,94
22.8326,105
22.8512,79
22.8697,100
22.8883,98
22.9069,93
22.9255,91
22.9440,109
22.9626,94
22.9812,104
22.9998,110
23.0183,112
23.0369,91
23.0555,86
23.0741,99
23.0926,77
23.1112,103
23.1298,103
23.1484,93
23.1669,88
23.1855,97
23.2041,79
23.2227,122
23.2412,89
23.2598,102
23.2784,89
23.2970,90
23.3155,104
23.3341,92
23.3527,106
23.3713,63
23.3898,94
23.4084,90
23.4270,92
23.4456,116
23.4641,108
23.4827,87
23.5013,95
23.5199,104
23.5384,110
23.5570,104
23.5756,113
23.5942,104
23.6128,88
23.6313,86
23.6499,104
23.6685,99
23.6871,103
23.7056,101
23.7242,105
23.7428,103
23.7614,92
23.7799,92
23.7985,87
23.8171,109
23.8357,71
23.8542,99
23.8728,85
23.8914,95
23.9100,93
23.9285,98
23.9471,90
23.9657,99
23.9843,106
24.0028,80
24.0214,95
24.0400,111
24.0586,92
24.0771,114
24.0957,113
24.1143,104
24.1329,107
24.1514,100
24.1700,95
24.1886,109
24.2072,101
24.2257,113
24.2443,136
24.2629,104
24.2815,106
24.3000,104
24.3186,97
24.3372,109
24.3558,117
24.3744,114
24.3929,106
24.4115,110
24.4301,113
24.4487,118
24.4672,105
24.4858,94
24.5044,79
24.5230,92
24.5415,97
24.5601,100
24.5787,82
24.5973,86
24.6158,103
24.6344,105
24.6530,97
24.6716,103
24.6901,105
24.7087,108
24.7273,106
24.7459,89
24.7644,81
24.7830,102
24.8016,82
24.8202,103
24.8387,113
24.8573,102
24.8759,83
24.8945,85
24.9130,82
24.9316,102
24.9502,96
24.9688,86
24.9873,98
25.0059,103
25.0245,88
25.0431,81
25.0616,102
25.0802,88
25.0988,83
25.1174,95
25.1360,88
25.1545,105
25.1731,91
25.1917,97
25.2103,84
25.2288,93
25.2474,111
25.2660,94
25.2846,80
25.3031,86
25.3217,94
25.3403,100
25.3589,91
25.3774,97
25.3960,93
25.4146,101
25.4332,89
25.4517,106
25.4703,96
25.4889,106
25.5075,94
25.5260,104
25.5446,93
25.5632,85
25.5818,97
25.6003,96
25.6189,103
25.6375,86
25.6561,115
25.6746,86
25.6932,86
25.7118,106
25.7304,81
25.7489,109
25.7675,99
25.7861,90
25.8047,97
25.8232,85
25.8418,98
25.8604,95
25.8790,88
25.8976,103
25.9161,88
25.9347,94
25.9533,91
25.9719,102
25.9904,90
26.0090,91
26.0276,104
26.0462,108
26.0647,91
26.0833,89
26.1019,93
26.1205,99
26.1390,84
26.1576,97
26.1762,85
26.1948,108
26.2133,94
26.2319,98
26.2505,89
26.2691,101
26.2876,115
26.3062,100
26.3248,93
26.3434,114
26.3619,100
26.3805,102
26.3991,105
26.4177,98
26.4362,89
26.4548,90
26.4734,105
26.4920,88
26.5105,104
26.5291,97
26.5477,87
26.5663,80
26.5848,87
26.6034,88
26.6220,99
26.6406,99
26.6591,103
26.6777,96
26.6963,96
26.7149,82
26.7335,92
26.7520,94
26.7706,93
26.7892,111
26.8078,75
26.8263,78
26.8449,91
26.8635,110
26.8821,101
26.9006,83
26.9192,91
26.9378,90
26.9564,99
26.9749,107
26.9935,108
27.0121,109
27.0307,93
27.0492,94
27.0678,81
27.0864,95
27.1050,97
27.1235,98
27.1421,116
27.1607,109
27.1793,105
27.1978,111
27.2164,109
27.2350,118
27.2536,105
27.2721,98
27.2907,96
27.3093,105
27.3279,107
27.3464,85
27.3650,98
27.3836,92
27.4022,95
27.4207,67
27.4393,100
27.4579,87
27.4765,95
27.4951,92
27.5136,75
27.5322,91
27.5508,109
27.5694,85
27.5879,98
27.6065,86
27.6251,95
27.6437,96
27.6622,98
27.6808,83
27.6994,91
27.7180,94
27.7365,92
27.7551,78
27.7737,82
27.7923,79
27.8108,92
27.8294,79
27.8480,87
27.8666,88
27.8851,83
27.9037,82
27.9223,105
27.9409,86
27.9594,90
27.9780,100
27.9966,62
28.0152,98
28.0337,85
28.0523,83
28.0709,92
28.0895,81
28.1080,99
28.1266,82
28.1452,79
28.1638,90
28.1823,95
28.2009,81
28.2195,77
28.2381,91
28.2567,84
28.2752,81
28.2938,80
28.3124,72
28.3310,95
28.3495,82
28.3681,82
28.3867,81
28.4053,89
28.4238,88
28.4424,90
28.4610,77
28.4796,95
28.4981,72
28.5167,86
28.5353,92
28.5539,82
28.5724,87
28.5910,67
28.6096,74
28.6282,88
28.6467,72
28.6653,87
28.6839,71
28.7025,68
28.7210,81
28.7396,90
28.7582,77
28.7768,73
28.7953,77
28.8139,81
28.8325,71
28.8511,100
28.8696,85
28.8882,72
28.9068,80
28.9254,70
28.9439,77
28.9625,95
28.9811,65
28.9997,89
29.0183,84
29.0368,82
29.0554,83
29.0740,73
29.0926,75
29.1111,84
29.1297,72
29.1483,86
29.1669,100
29.1854,76
29.2040,80
29.2226,92
29.2412,86
29.2597,80
29.2783,85
29.2969,80
29.3155,76
29.3340,72
29.3526,70
29.3712,75
29.3898,58
29.4083,91
29.4269,69
29.4455,76
29.4641,78
29.4826,87
29.5012,80
29.5198,85
29.5384,73
29.5569,73
29.5755,65
29.5941,74
29.6127,70
29.6312,80
29.6498,77
29.6684,77
29.6870,88
29.7055,87
29.7241,72
29.7427,75
29.7613,98
29.7799,91
29.7984,71
29.8170,85
29.8356,86
29.8542,70
29.8727,76
29.8913,74
29.9099,87
29.9285,72
29.9470,72
29.9656,78
29.9842,77
30.0028,76
30.0213,74
30.0399,95
30.0585,66
30.0771,81
30.0956,83
30.1142,81
30.1328,76
30.1514,81
30.1699,71
30.1885,80
30.2071,78
30.2257,80
30.2442,86
30.2628,82
30.2814,85
30.3000,87
30.3185,78
30.3371,102
30.3557,118
30.3743,164
30.3928,185
30.4114,125
30.4300,111
30.4486,104
30.4671,125
30.4857,102
30.5043,95
30.5229,72
30.5415,85
30.5600,84
30.5786,66
30.5972,93
30.6158,76
30.6343,85
30.6529,86
30.6715,71
30.6901,81
30.7086,84
30.7272,57
30.7458,64
30.7644,76
30.7829,58
30.8015,72
30.8201,63
30.8387,73
30.8572,68
30.8758,77
30.8944,63
30.9130,91
30.9315,87
30.9501,67
30.9687,77
30.9873,70
31.0058,88
31.0244,76
31.0430,67
31.0616,81
31.0801,68
31.0987,70
31.1173,81
31.1359,53
31.1544,63
31.1730,68
31.1916,72
31.2102,64
31.2287,76
31.2473,75
31.2659,62
31.2845,71
31.3030,53
31.3216,58
31.3402,85
31.3588,71
31.3774,73
31.3959,65
31.4145,70
31.4331,65
31.4517,72
31.4702,79
31.4888,61
31.5074,73
31.5260,63
31.5445,72
31.5631,60
31.5817,63
31.6003,70
31.6188,52
31.6374,75
31.6560,63
31.6746,58
31.6931,63
31.7117,68
31.7303,61
31.7489,72
31.7674,61
31.7860,58
31.8046,65
31.8232,62
31.8417,55
31.8603,71
31.8789,63
31.8975,53
31.9160,46
31.9346,71
31.9532,62
31.9718,75
31.9903,65
32.0089,64
32.0275,69
32.0461,73
32.0646,62
32.0832,53
32.1018,66
32.1204,63
32.1390,82
32.1575,51
32.1761,71
32.1947,55
32.2133,70
32.2318,68
32.2504,61
32.2690,66
32.2876,62
32.3061,62
32.3247,63
32.3433,64
32.3619,63
32.3804,79
32.3990,67
32.4176,77
32.4362,75
32.4547,83
32.4733,79
32.4919,59
32.5105,63
32.5290,69
32.5476,66
32.5662,63
32.5848,80
32.6033,60
32.6219,69
32.6405,61
32.6591,82
32.6776,71
32.6962,53
32.7148,67
32.7334,59
32.7519,68
32.7705,65
32.7891,73
32.8077,65
32.8262,54
32.8448,70
32.8634,57
32.8820,54
32.9006,65
32.9191,66
32.9377,63
32.9563,59
32.9749,45
32.9934,57
33.0120,64
33.0306,65
33.0492,62
33.0677,67
33.0863,69
33.1049,62
33.1235,62
33.1420,72
33.1606,53
33.1792,60
33.1978,47
33.2163,62
33.2349,57
33.2535,63
33.2721,62
33.2906,52
33.3092,46
33.3278,70
33.3464,52
33.3649,55
33.3835,66
33.4021,57
33.4207,53
33.4392,64
33.4578,47
33.4764,59
33.4950,62
33.5135,64
33.5321,67
33.5507,64
33.5693,72
33.5878,52
33.6064,61
33.6250,66
33.6436,51
33.6622,54
33.6807,54
33.6993,67
33.7179,66
33.7365,53
33.7550,51
33.7736,52
33.7922,54
33.8108,57
33.8293,49
33.8479,62
33.8665,50
33.8851,59
33.9036,67
33.9222,57
33.9408,59
33.9594,64
33.9779,57
33.9965,55
34.0151,56
34.0337,56
34.0522,48
34.0708,55
34.0894,67
34.1080,62
34.1265,51
34.1451,53
34.1637,59
34.1823,55
34.2008,60
34.2194,51
34.2380,56
34.2566,57
34.2751,44
34.2937,60
34.3123,53
34.3309,55
34.3494,51
34.3680,50
34.3866,58
34.4052,52
34.4238,53
34.4423,56
34.4609,48
34.4795,74
34.4981,53
34.5166,46
34.5352,68
34.5538,68
34.5724,54
34.5909,56
34.6095,55
34.6281,59
34.6467,57
34.6652,52
34.6838,58
34.7024,79
34.7210,66
34.7395,71
34.7581,84
34.7767,82
34.7953,94
34.8138,79
34.8324,64
34.8510,72
34.8696,65
34.8881,54
34.9067,60
34.9253,76
34.9439,51
34.9624,53
34.9810,58
34.9996,46
35.0182,61
35.0367,55
35.0553,62
35.0739,41
35.0925,56
35.1110,61
35.1296,52
35.1482,62
35.1668,52
35.1854,59
35.2039,44
35.2225,52
35.2411,46
35.2597,58
35.2782,64
35.2968,52
35.3154,64
35.3340,48
35.3525,55
35.3711,38
35.3897,59
35.4083,46
35.4268,53
35.4454,52
35.4640,46
35.4826,54
35.5011,40
35.5197,45
35.5383,45
35.5569,51
35.5754,54
35.5940,40
35.6126,65
35.6312,62
35.6497,34
35.6683,44
35.6869,41
35.7055,52
35.7240,50
35.7426,45
35.7612,53
35.7798,41
35.7983,36
35.8169,55
35.8355,48
35.8541,35
35.8726,61
35.8912,47
35.9098,53
35.9284,52
35.9469,42
35.9655,45
35.9841,53
36.0027,53
36.0213,34
36.0398,53
36.0584,48
36.0770,40
36.0956,44
36.1141,53
36.1327,46
36.1513,62
36.1699,40
36.1884,46
36.2070,51
36.2256,56
36.2442,54
36.2627,44
36.2813,42
36.2999,43
36.3185,52
36.3370,42
36.3556,61
36.3742,48
36.3928,57
36.4113,43
36.4299,43
36.4485,48
36.4671,45
36.4856,40
36.5042,55
36.5228,52
36.5414,45
36.5599,59
36.5785,49
36.5971,49
36.6157,41
36.6342,52
36.6528,49
36.6714,39
36.6900,42
36.7085,46
36.7271,57
36.7457,45
36.7643,58
36.7829,47
36.8014,50
36.8200,42
36.8386,47
36.8572,46
36.8757,44
36.8943,33
36.9129,41
36.9315,42
36.9500,54
36.9686,40
36.9872,42
37.0058,39
37.0243,49
37.0429,37
37.0615,49
37.0801,35
37.0986,43
37.1172,34
37.1358,44
37.1544,53
37.1729,41
37.1915,60
37.2101,46
37.2287,59
37.2472,47
37.2658,51
37.2844,37
37.3030,53
37.3215,52
37.3401,49
37.3587,46
37.3773,47
37.3958,65
37.4144,67
37.4330,69
37.4516,82
37.4701,59
37.4887,45
37.5073,48
37.5259,54
37.5445,55
37.5630,70
37.5816,50
37.6002,47
37.6188,44
37.6373,38
37.6559,38
37.6745,40
37.6931,40
37.7116,42
37.7302,46
37.7488,46
37.7674,43
37.7859,47
37.8045,53
37.8231,39
37.8417,54
37.8602,49
37.8788,37
37.8974,54
37.9160,53
37.9345,48
37.9531,42
37.9717,53
37.9903,38
38.0088,34
38.0274,36
38.0460,38
38.0646,40
38.0831,49
38.1017,48
38.1203,45
38.1389,38
38.1574,47
38.1760,47
38.1946,41
38.2132,50
38.2317,44
38.2503,38
38.2689,37
38.2875,38
38.3061,32
38.3246,40
38.3432,54
38.3618,46
38.3804,33
38.3989,46
38.4175,44
38.4361,36
38.4547,37
38.4732,33
38.4918,42
38.5104,49
38.5290,34
38.5475,37
38.5661,47
38.5847,44
38.6033,34
38.6218,41
38.6404,54
38.6590,40
38.6776,41
38.6961,42
38.7147,36
38.7333,36
38.7519,37
38.7704,42
38.7890,44
38.8076,32
38.8262,53
38.8447,35
38.8633,46
38.8819,44
38.9005,45
38.9190,43
38.9376,42
38.9562,37
38.9748,48
38.9933,41
39.0119,46
39.0305,28
39.0491,37
39.0677,41
39.0862,48
39.1048,52
39.1234,45
39.1420,41
39.1605,38
39.1791,39
39.1977,42
39.2163,49
39.2348,36
39.2534,39
39.2720,48
39.2906,39
39.3091,42
39.3277,42
39.3463,36
39.3649,41
39.3834,35
39.4020,33
39.4206,36
39.4392,49
39.4577,34
39.4763,35
39.4949,48
39.5135,40
39.5320,44
39.5506,41
39.5692,40
39.5878,39
39.6063,39
39.6249,40
39.6435,38
39.6621,34
39.6806,36
39.6992,27
39.7178,43
39.7364,42
39.7549,32
39.7735,35
39.7921,39
39.8107,31
39.8293,51
39.8478,35
39.8664,54
39.8850,50
39.9036,43
39.9221,30
39.9407,33
39.9593,51
39.9779,42
39.9964,38
40.0150,53
40.0336,50
40.0522,34
40.0707,48
40.0893,37
40.1079,55
40.1265,44
40.1450,40
40.1636,30
40.1822,30
40.2008,39
40.2193,29
40.2379,46
40.2565,31
40.2751,41
40.2936,38
40.3122,43
40.3308,43
40.3494,45
40.3679,32
40.3865,35
40.4051,32
40.4237,32
40.4422,37
40.4608,35
40.4794,44
40.4980,36
40.5165,40
40.5351,43
40.5537,35
40.5723,38
40.5908,37
40.6094,44
40.6280,27
40.6466,43
40.6652,38
40.6837,38
40.7023,38
40.7209,50
40.7395,39
40.7580,39
40.7766,28
40.7952,40
40.8138,33
40.8323,37
40.8509,35
40.8695,41
40.8881,42
40.9066,49
40.9252,44
40.9438,54
40.9624,37
40.9809,37
40.9995,46
41.0181,51
41.0367,39
41.0552,43
41.0738,36
41.0924,35
41.1110,45
41.1295,41
41.1481,29
41.1667,28
41.1853,30
41.2038,38
41.2224,37
41.2410,29
41.2596,38
41.2781,42
41.2967,34
41.3153,41
41.3339,38
41.3524,31
41.3710,33
41.3896,46
41.4082,37
41.4268,38
41.4453,40
41.4639,45
41.4825,22
41.5011,28
41.5196,41
41.5382,37
41.5568,40
41.5754,34
41.5939,34
41.6125,24
41.6311,35
41.6497,41
41.6682,41
41.6868,40
41.7054,34
41.7240,33
41.7425,37
41.7611,41
41.7797,30
41.7983,29
41.8168,33
41.8354,44
41.8540,46
41.8726,38
41.8911,34
41.9097,36
41.9283,37
41.9469,36
41.9654,30
41.9840,41
42.0026,38
42.0212,38
42.0397,38
42.0583,39
42.0769,26
42.0955,26
42.1140,34
42.1326,36
42.1512,48
42.1698,40
42.1884,27
42.2069,53
42.2255,44
42.2441,32
42.2627,38
42.2812,36
42.2998,42
42.3184,37
42.3370,24
42.3555,26
42.3741,38
42.3927,35
42.4113,27
42.4298,35
42.4484,48
42.4670,35
42.4856,35
42.5041,33
42.5227,48
42.5413,40
42.5599,54
42.5784,30
42.5970,36
42.6156,35
42.6342,30
42.6527,46
42.6713,48
42.6899,46
42.7085,36
42.7270,37
42.7456,34
42.7642,30
42.7828,30
42.8013,33
42.8199,44
42.8385,34
42.8571,42
42.8756,33
42.8942,36
42.9128,33
42.9314,34
42.9500,32
42.9685,42
42.9871,49
43.0057,33
43.0243,41
43.0428,44
43.0614,30
43.0800,46
43.0986,42
43.1171,45
43.1357,29
43.1543,44
43.1729,41
43.1914,40
43.2100,46
43.2286,54
43.2472,43
43.2657,44
43.2843,39
43.3029,49
43.3215,38
43.3400,48
43.3586,42
43.3772,46
43.3958,42
43.4143,42
43.4329,34
43.4515,43
43.4701,57
43.4886,50
43.5072,69
43.5258,45
43.5444,41
43.5629,33
43.5815,39
43.6001,49
43.6187,53
43.6372,31
43.6558,46
43.6744,35
43.6930,39
43.7116,42
43.7301,37
43.7487,35
43.7673,35
43.7859,32
43.8044,32
43.8230,31
43.8416,45
43.8602,42
43.8787,36
43.8973,26
43.9159,36
43.9345,48
43.9530,33
43.9716,36
43.9902,38
44.0088,48
44.0273,44
44.0459,35
44.0645,34
44.0831,27
44.1016,28
44.1202,40
44.1388,37
44.1574,38
44.1759,44
44.1945,38
44.2131,46
44.2317,47
44.2502,33
44.2688,41
44.2874,41
44.3060,42
44.3245,43
44.3431,39
44.3617,34
44.3803,39
44.3988,33
44.4174,31
44.4360,42
44.4546,28
44.4732,30
44.4917,34
44.5103,41
44.5289,32
44.5475,39
44.5660,40
44.5846,40
44.6032,34
44.6218,35
44.6403,52
44.6589,39
44.6775,40
44.6961,28
44.7146,32
44.7332,35
44.7518,39
44.7704,48
44.7889,31
44.8075,38
44.8261,29
44.8447,44
44.8632,35
44.8818,40
44.9004,40
44.9190,34
44.9375,34
44.9561,38
44.9747,41
44.9933,29
45.0118,37
45.0304,39
45.0490,40
45.0676,30
45.0861,37
45.1047,32
45.1233,35
45.1419,25
45.1604,28
45.1790,31
45.1976,32
45.2162,40
45.2347,36
45.2533,39
45.2719,31
45.2905,37
45.3091,19
45.3276,27
45.3462,30
45.3648,33
45.3834,37
45.4019,33
45.4205,46
45.4391,27
45.4577,38
45.4762,30
45.4948,38
45.5134,34
45.5320,28
45.5505,42
45.5691,33
45.5877,36
45.6063,36
45.6248,36
45.6434,29
45.6620,31
45.6806,25
45.6991,38
45.7177,32
45.7363,23
45.7549,35
45.7734,39
45.7920,32
45.8106,25
45.8292,31
45.8477,38
45.8663,44
45.8849,35
45.9035,31
45.9220,34
45.9406,34
45.9592,38
45.9778,45
45.9963,43
46.0149,28
46.0335,39
46.0521,37
46.0707,40
46.0892,46
46.1078,33
46.1264,31
46.1450,26
46.1635,28
46.1821,31
46.2007,41
46.2193,22
46.2378,37
46.2564,39
46.2750,33
46.2936,27
46.3121,37
46.3307,20
46.3493,41
46.3679,34
46.3864,31
46.4050,31
46.4236,25
46.4422,27
46.4607,33
46.4793,42
46.4979,33
46.5165,27
46.5350,26
46.5536,24
46.5722,26
46.5908,30
46.6093,32
46.6279,36
46.6465,32
46.6651,36
46.6836,39
46.7022,29
46.7208,33
46.7394,32
46.7579,36
46.7765,28
46.7951,35
46.8137,24
46.8323,30
46.8508,35
46.8694,33
46.8880,45
46.9066,35
46.9251,29
46.9437,26
46.9623,30
46.9809,34
46.9994,38
47.0180,41
47.0366,25
47.0552,37
47.0737,33
47.0923,31
47.1109,35
47.1295,41
47.1480,28
47.1666,36
47.1852,36
47.2038,38
47.2223,25
47.2409,25
47.2595,33
47.2781,28
47.2966,35
47.3152,20
47.3338,23
47.3524,37
47.3709,26
47.3895,38
47.4081,36
47.4267,26
47.4452,38
47.4638,23
47.4824,36
47.5010,32
47.5195,30
47.5381,27
47.5567,33
47.5753,19
47.5939,36
47.6124,37
47.6310,32
47.6496,27
47.6682,29
47.6867,34
47.7053,33
47.7239,28
47.7425,29
47.7610,31
47.7796,36
47.7982,33
47.8168,28
47.8353,32
47.8539,45
47.8725,32
47.8911,32
47.9096,46
47.9282,28
47.9468,32
47.9654,34
47.9839,32
48.0025,30
48.0211,34
48.0397,35
48.0582,30
48.0768,33
48.0954,31
48.1140,22
48.1325,33
48.1511,24
48.1697,32
48.1883,33
48.2068,27
48.2254,26
48.2440,35
48.2626,31
48.2811,31
48.2997,34
48.3183,30
48.3369,41
48.3555,26
48.3740,26
48.3926,36
48.4112,31
48.4298,34
48.4483,47
48.4669,33
48.4855,24
48.5041,30
48.5226,26
48.5412,34
48.5598,35
48.5784,29
48.5969,27
48.6155,25
48.6341,34
48.6527,28
48.6712,32
48.6898,24
48.7084,35
48.7270,37
48.7455,38
48.7641,42
48.7827,37
48.8013,23
48.8198,33
48.8384,30
48.8570,31
48.8756,22
48.8941,35
48.9127,37
48.9313,52
48.9499,50
48.9684,71
48.9870,58
49.0056,37
49.0242,29
49.0427,46
49.0613,32
49.0799,45
49.0985,58
49.1171,41
49.1356,32
49.1542,33
49.1728,35
49.1914,32
49.2099,47
49.2285,29
49.2471,32
49.2657,17
49.2842,34
49.3028,28
49.3214,30
49.3400,31
49.3585,28
49.3771,21
49.3957,30
49.4143,29
49.4328,34
49.4514,34
49.4700,30
49.4886,28
49.5071,36
49.5257,30
49.5443,34
49.5629,33
49.5814,29
49.6000,30
49.6186,31
49.6372,31
49.6557,30
49.6743,22
49.6929,30
49.7115,26
49.7300,35
49.7486,34
49.7672,43
49.7858,29
49.8043,25
49.8229,30
49.8415,45
49.8601,39
49.8786,34
49.8972,31
49.9158,25
49.9344,32
49.9530,31
49.9715,28
49.9901,25
50.0087,27
50.0273,29
50.0458,28
50.0644,28
50.0830,37
50.1016,29
50.1201,26
50.1387,32
50.1573,32
50.1759,31
50.1944,23
50.2130,30
50.2316,38
50.2502,30
50.2687,33
50.2873,31
50.3059,30
50.3245,28
50.3430,30
50.3616,36
50.3802,35
50.3988,34
50.4173,30
50.4359,43
50.4545,35
50.4731,30
50.4916,27
50.5102,30
50.5288,25
50.5474,29
50.5659,37
50.5845,28
50.6031,36
50.6217,30
50.6402,22
50.6588,23
50.6774,34
50.6960,29
50.7146,26
50.7331,31
50.7517,24
50.7703,34
50.7889,33
50.8074,27
50.8260,28
50.8446,30
50.8632,38
50.8817,31
50.9003,23
50.9189,19
50.9375,32
50.9560,27
50.9746,22
50.9932,41
51.0118,32
51.0303,30
51.0489,29
51.0675,26
51.0861,36
51.1046,18
51.1232,21
51.1418,30
51.1604,31
51.1789,34
51.1975,29
51.2161,31
51.2347,38
51.2532,23
51.2718,21
51.2904,20
51.3090,28
51.3275,29
51.3461,36
51.3647,33
51.3833,43
51.4018,35
51.4204,32
51.4390,38
51.4576,27
51.4762,32
51.4947,23
51.5133,30
51.5319,24
51.5505,22
51.5690,27
51.5876,40
51.6062,29
51.6248,25
51.6433,37
51.6619,39
51.6805,24
51.6991,36
51.7176,28
51.7362,30
51.7548,22
51.7734,27
51.7919,38
51.8105,39
51.8291,31
51.8477,40
51.8662,33
51.8848,22
51.9034,36
51.9220,27
51.9405,37
51.9591,36
51.9777,36
51.9963,22
52.0148,34
52.0334,30
52.0520,45
52.0706,29
52.0891,36
52.1077,28
52.1263,20
52.1449,23
52.1634,26
52.1820,34
52.2006,34
52.2192,32
52.2378,26
52.2563,32
52.2749,33
52.2935,16
52.3121,29
52.3306,31
52.3492,33
52.3678,33
52.3864,23
52.4049,23
52.4235,25
52.4421,24
52.4607,31
52.4792,24
52.4978,21
52.5164,23
52.5350,29
52.5535,28
52.5721,27
52.5907,28
52.6093,34
52.6278,31
52.6464,34
52.6650,25
52.6836,33
52.7021,25
52.7207,26
52.7393,28
52.7579,25
52.7764,28
52.7950,20
52.8136,31
52.8322,26
52.8507,34
52.8693,32
52.8879,27
52.9065,30
52.9250,23
52.9436,23
52.9622,22
52.9808,36
52.9994,29
53.0179,33
53.0365,31
53.0551,26
53.0737,34
53.0922,31
53.1108,26
53.1294,29
53.1480,19
53.1665,23
53.1851,33
53.2037,23
53.2223,42
53.2408,29
53.2594,31
53.2780,28
53.2966,23
53.3151,21
53.3337,28
53.3523,29
53.3709,31
53.3894,30
53.4080,22
53.4266,35
53.4452,20
53.4637,32
53.4823,28
53.5009,27
53.5195,26
53.5380,30
53.5566,28
53.5752,25
53.5938,31
53.6123,22
53.6309,32
53.6495,27
53.6681,19
53.6866,20
53.7052,33
53.7238,25
53.7424,32
53.7610,21
53.7795,25
53.7981,29
53.8167,26
53.8353,28
53.8538,30
53.8724,27
53.8910,24
53.9096,40
53.9281,24
53.9467,35
53.9653,33
53.9839,33
54.0024,41
54.0210,37
54.0396,28
54.0582,33
54.0767,31
54.0953,32
54.1139,24
54.1325,38
54.1510,45
54.1696,25
54.1882,35
54.2068,24
54.2253,32
54.2439,22
54.2625,25
54.2811,28
54.2996,31
54.3182,28
54.3368,30
54.3554,37
54.3739,20
54.3925,36
54.4111,27
54.4297,28
54.4482,29
54.4668,22
54.4854,23
54.5040,36
54.5225,28
54.5411,31
54.5597,26
54.5783,26
54.5969,20
54.6154,20
54.6340,29
54.6526,22
54.6712,30
54.6897,28
54.7083,30
54.7269,22
54.7455,33
54.7640,26
54.7826,29
54.8012,24
54.8198,29
54.8383,29
54.8569,19
54.8755,32
54.8941,21
54.9126,22
54.9312,29
54.9498,28
54.9684,25
54.9869,27
55.0055,38
55.0241,26
55.0427,25
55.0612,31
55.0798,31
55.0984,33
55.1170,32
55.1355,30
55.1541,28
55.1727,23
55.1913,24
55.2098,30
55.2284,22
55.2470,26
55.2656,36
55.2841,25
55.3027,28
55.3213,32
55.3399,31
55.3585,24
55.3770,27
55.3956,29
55.4142,27
55.4328,38
55.4513,31
55.4699,35
55.4885,22
55.5071,34
55.5256,37
55.5442,36
55.5628,19
55.5814,28
55.5999,24
55.6185,21
55.6371,28
55.6557,29
55.6742,24
55.6928,26
55.7114,27
55.7300,30
55.7485,22
55.7671,30
55.7857,27
55.8043,31
55.8228,26
55.8414,26
55.8600,27
55.8786,34
55.8971,29
55.9157,29
55.9343,33
55.9529,25
55.9714,32
55.9900,27
56.0086,27
56.0272,24
56.0457,32
56.0643,33
56.0829,28
56.1015,34
56.1201,28
56.1386,30
56.1572,26
56.1758,34
56.1944,33
56.2129,37
56.2315,31
56.2501,39
56.2687,45
56.2872,44
56.3058,37
56.3244,31
56.3430,27
56.3615,27
56.3801,40
56.3987,28
56.4173,26
56.4358,26
56.4544,39
56.4730,22
56.4916,35
56.5101,32
56.5287,17
56.5473,31
56.5659,25
56.5844,35
56.6030,26
56.6216,27
56.6402,26
56.6587,27
56.6773,36
56.6959,24
56.7145,29
56.7330,30
56.7516,32
56.7702,19
56.7888,28
56.8073,30
56.8259,26
56.8445,41
56.8631,24
56.8817,24
56.9002,26
56.9188,31
56.9374,25
56.9560,29
56.9745,27
56.9931,35
57.0117,33
57.0303,22
57.0488,32
57.0674,29
57.0860,30
57.1046,23
57.1231,29
57.1417,21
57.1603,25
57.1789,32
57.1974,33
57.2160,27
57.2346,43
57.2532,33
57.2717,22
57.2903,35
57.3089,36
57.3275,30
57.3460,26
57.3646,25
57.3832,22
57.4018,19
57.4203,21
57.4389,34
57.4575,36
57.4761,20
57.4946,24
57.5132,23
57.5318,22
57.5504,34
57.5689,20
57.5875,23
57.6061,27
57.6247,29
57.6433,30
57.6618,32
57.6804,29
57.6990,32
57.7176,24
57.7361,31
57.7547,20
57.7733,47
57.7919,21
57.8104,28
57.8290,31
57.8476,21
57.8662,35
57.8847,24
57.9033,25
57.9219,33
57.9405,32
57.9590,34
57.9776,34
57.9962,32
58.0148,33
58.0333,21
58.0519,24
58.0705,28
58.0891,29
58.1076,33
58.1262,25
58.1448,30
58.1634,28
58.1819,35
58.2005,23
58.2191,26
58.2377,42
58.2562,27
58.2748,31
58.2934,33
58.3120,26
58.3305,34
58.3491,29
58.3677,27
58.3863,21
58.4049,24
58.4234,29
58.4420,27
58.4606,24
58.4792,31
58.4977,24
58.5163,24
58.5349,26
58.5535,27
58.5720,18
58.5906,28
58.6092,27
58.6278,29
58.6463,26
58.6649,33
58.6835,22
58.7021,25
58.7206,27
58.7392,31
58.7578,22
58.7764,33
58.7949,34
58.8135,25
58.8321,30
58.8507,24
58.8692,24
58.8878,26
58.9064,31
58.9250,33
58.9435,27
58.9621,32
58.9807,25
58.9993,20
59.0178,29
59.0364,30
59.0550,26
59.0736,32
59.0921,25
59.1107,22
59.1293,13
59.1479,21
59.1664,26
59.1850,30
59.2036,26
59.2222,27
59.2408,23
59.2593,28
59.2779,33
59.2965,21
59.3151,33
59.3336,45
59.3522,25
59.3708,20
59.3894,34
59.4079,30
59.4265,26
59.4451,30
59.4637,33
59.4822,23
59.5008,25
59.5194,22
59.5380,35
59.5565,21
59.5751,33
59.5937,31
59.6123,19
59.6308,24
59.6494,20
59.6680,34
59.6866,20
59.7051,27
59.7237,33
59.7423,30
59.7609,25
59.7794,34
59.7980,35
59.8166,29
59.8352,27
59.8537,36
59.8723,16
59.8909,27
59.9095,28
59.9280,27
59.9466,29
59.9652,22
59.9838,31
60.0024,25
