;,2THETA,
5.0000,103
5.0186,108
5.0372,91
5.0557,101
5.0743,106
5.0929,101
5.1115,103
5.1300,91
5.1486,74
5.1672,89
5.1858,86
5.2043,77
5.2229,79
5.2415,97
5.2601,95
5.2786,82
5.2972,83
5.3158,94
5.3344,72
5.3529,86
5.3715,85
5.3901,71
5.4087,88
5.4272,92
5.4458,98
5.4644,82
5.4830,87
5.5015,81
5.5201,95
5.5387,87
5.5573,90
5.5758,78
5.5944,97
5.6130,70
5.6316,84
5.6501,89
5.6687,78
5.6873,91
5.7059,90
5.7244,76
5.7430,86
5.7616,80
5.7802,81
5.7988,61
5.8173,84
5.8359,87
5.8545,70
5.8731,72
5.8916,71
5.9102,87
5.9288,81
5.9474,76
5.9659,75
5.9845,78
6.0031,63
6.0217,67
6.0402,70
6.0588,72
6.0774,66
6.0960,71
6.1145,78
6.1331,66
6.1517,55
6.1703,64
6.1888,62
6.2074,54
6.2260,79
6.2446,72
6.2631,79
6.2817,76
6.3003,60
6.3189,75
6.3374,72
6.3560,83
6.3746,55
6.3932,80
6.4117,64
6.4303,55
6.4489,63
6.4675,72
6.4860,71
6.5046,62
6.5232,59
6.5418,76
6.5604,67
6.5789,56
6.5975,60
6.6161,67
6.6347,62
6.6532,65
6.6718,73
6.6904,57
6.7090,60
6.7275,54
6.7461,62
6.7647,57
6.7833,63
6.8018,65
6.8204,57
6.8390,62
6.8576,55
6.8761,59
6.8947,61
6.9133,44
6.9319,48
6.9504,58
6.9690,54
6.9876,61
7.0062,62
7.0247,52
7.0433,45
7.0619,55
7.0805,60
7.0990,59
7.1176,45
7.1362,57
7.1548,69
7.1733,65
7.1919,47
7.2105,68
7.2291,56
7.2476,68
7.2662,66
7.2848,53
7.3034,52
7.3220,42
7.3405,64
7.3591,61
7.3777,60
7.3963,54
7.4148,61
7.4334,46
7.4520,62
7.4706,58
7.4891,74
7.5077,56
7.5263,60
7.5449,60
7.5634,62
7.5820,74
7.6006,63
7.6192,69
7.6377,67
7.6563,52
7.6749,57
7.6935,61
7.7120,66
7.7306,66
7.7492,72
7.7678,77
7.7863,77
7.8049,66
7.8235,70
7.8421,62
7.8606,60
7.8792,65
7.8978,61
7.9164,75
7.9349,66
7.9535,74
7.9721,58
7.9907,81
8.0092,57
8.0278,61
8.0464,84
8.0650,70
8.0835,57
8.1021,73
8.1207,65
8.1393,79
8.1579,68
8.1764,79
8.1950,83
8.2136,65
8.2322,65
8.2507,78
8.2693,85
8.2879,74
8.3065,70
8.3250,65
8.3436,76
8.3622,73
8.3808,80
8.3993,67
8.4179,69
8.4365,73
8.4551,77
8.4736,83
8.4922,70
8.5108,66
8.5294,76
8.5479,65
8.5665,86
8.5851,68
8.6037,82
8.6222,77
8.6408,71
8.6594,82
8.6780,74
8.6965,67
8.7151,91
8.7337,73
8.7523,104
8.7708,82
8.7894,84
8.8080,66
8.8266,84
8.8451,84
8.8637,85
8.8823,82
8.9009,73
8.9195,75
8.9380,76
8.9566,81
8.9752,68
8.9938,66
9.0123,74
9.0309,73
9.0495,87
9.0681,78
9.0866,83
9.1052,85
9.1238,69
9.1424,75
9.1609,75
9.1795,75
9.1981,77
9.2167,74
9.2352,69
9.2538,78
9.2724,70
9.2910,75
9.3095,80
9.3281,93
9.3467,73
9.3653,74
9.3838,83
9.4024,73
9.4210,77
9.4396,88
9.4581,81
9.4767,62
9.4953,84
9.5139,72
9.5324,77
9.5510,77
9.5696,98
9.5882,95
9.6067,86
9.6253,81
9.6439,89
9.6625,78
9.6811,77
9.6996,89
9.7182,78
9.7368,82
9.7554,77
9.7739,99
9.7925,83
9.8111,100
9.8297,88
9.8482,74
9.8668,81
9.8854,96
9.9040,87
9.9225,70
9.9411,80
9.9597,107
9.9783,98
9.9968,79
10.0154,78
10.0340,76
10.0526,84
10.0711,105
10.0897,81
10.1083,101
10.1269,87
10.1454,94
10.1640,77
10.1826,98
10.2012,99
10.2197,79
10.2383,100
10.2569,81
10.2755,92
10.2940,80
10.3126,82
10.3312,67
10.3498,91
10.3683,81
10.3869,89
10.4055,82
10.4241,90
10.4427,80
10.4612,88
10.4798,101
10.4984,90
10.5170,85
10.5355,77
10.5541,100
10.5727,85
10.5913,103
10.6098,79
10.6284,91
10.6470,72
10.6656,89
10.6841,101
10.7027,84
10.7213,84
10.7399,75
10.7584,85
10.7770,81
10.7956,90
10.8142,84
10.8327,96
10.8513,75
10.8699,84
10.8885,96
10.9070,106
10.9256,79
10.9442,91
10.9628,86
10.9813,96
10.9999,94
11.0185,80
11.0371,103
11.0556,80
11.0742,105
11.0928,74
11.1114,91
11.1299,92
11.1485,77
11.1671,70
11.1857,71
11.2043,82
11.2228,86
11.2414,99
11.2600,98
11.2786,84
11.2971,101
11.3157,87
11.3343,103
11.3529,95
11.3714,88
11.3900,82
11.4086,80
11.4272,73
11.4457,86
11.4643,90
11.4829,88
11.5015,86
11.5200,91
11.5386,72
11.5572,100
11.5758,103
11.5943,92
11.6129,86
11.6315,91
11.6501,77
11.6686,80
11.6872,95
11.7058,79
11.7244,77
11.7429,88
11.7615,73
11.7801,86
11.7987,90
11.8172,83
11.8358,84
11.8544,84
11.8730,79
11.8915,80
11.9101,89
11.9287,84
11.9473,84
11.9659,79
11.9844,90
12.0030,81
12.0216,102
12.0402,78
12.0587,88
12.0773,79
12.0959,85
12.1145,89
12.1330,90
12.1516,89
12.1702,85
12.1888,84
12.2073,78
12.2259,80
12.2445,85
12.2631,88
12.2816,77
12.3002,84
12.3188,86
12.3374,84
12.3559,84
12.3745,71
12.3931,69
12.4117,89
12.4302,88
12.4488,80
12.4674,79
12.4860,76
12.5045,75
12.5231,87
12.5417,75
12.5603,92
12.5788,89
12.5974,88
12.6160,86
12.6346,79
12.6531,79
12.6717,77
12.6903,80
12.7089,74
12.7274,66
12.7460,73
12.7646,83
12.7832,77
12.8018,74
12.8203,69
12.8389,82
12.8575,81
12.8761,72
12.8946,76
12.9132,91
12.9318,72
12.9504,74
12.9689,83
12.9875,83
13.0061,81
13.0247,68
13.0432,73
13.0618,70
13.0804,73
13.0990,71
13.1175,91
13.1361,75
13.1547,80
13.1733,77
13.1918,75
13.2104,68
13.2290,75
13.2476,69
13.2661,67
13.2847,76
13.3033,66
13.3219,77
13.3404,83
13.3590,68
13.3776,78
13.3962,82
13.4147,75
13.4333,70
13.4519,81
13.4705,63
13.4890,79
13.5076,84
13.5262,80
13.5448,61
13.5634,72
13.5819,72
13.6005,70
13.6191,53
13.6377,52
13.6562,70
13.6748,58
13.6934,79
13.7120,61
13.7305,62
13.7491,60
13.7677,72
13.7863,84
13.8048,68
13.8234,62
13.8420,67
13.8606,79
13.8791,63
13.8977,64
13.9163,67
13.9349,65
13.9534,69
13.9720,59
13.9906,55
14.0092,76
14.0277,78
14.0463,66
14.0649,59
14.0835,67
14.1020,63
14.1206,63
14.1392,78
14.1578,68
14.1763,71
14.1949,70
14.2135,65
14.2321,73
14.2506,80
14.2692,58
14.2878,89
14.3064,65
14.3250,68
14.3435,65
14.3621,64
14.3807,62
14.3993,63
14.4178,78
14.4364,66
14.4550,75
14.4736,58
14.4921,69
14.5107,71
14.5293,63
14.5479,61
14.5664,50
14.5850,74
14.6036,74
14.6222,66
14.6407,59
14.6593,58
14.6779,53
14.6965,61
14.7150,79
14.7336,70
14.7522,54
14.7708,75
14.7893,67
14.8079,66
14.8265,55
14.8451,58
14.8636,58
14.8822,45
14.9008,65
14.9194,58
14.9379,54
14.9565,71
14.9751,66
14.9937,61
15.0122,79
15.0308,64
15.0494,74
15.0680,54
15.0866,59
15.1051,61
15.1237,66
15.1423,65
15.1609,69
15.1794,62
15.1980,70
15.2166,66
15.2352,60
15.2537,59
15.2723,66
15.2909,61
15.3095,65
15.3280,65
15.3466,45
15.3652,54
15.3838,59
15.4023,60
15.4209,58
15.4395,53
15.4581,51
15.4766,65
15.4952,66
15.5138,61
15.5324,64
15.5509,58
15.5695,69
15.5881,66
15.6067,50
15.6252,52
15.6438,58
15.6624,53
15.6810,52
15.6995,68
15.7181,64
15.7367,60
15.7553,57
15.7738,65
15.7924,52
15.8110,59
15.8296,69
15.8482,56
15.8667,63
15.8853,47
15.9039,80
15.9225,53
15.9410,64
15.9596,46
15.9782,52
15.9968,68
16.0153,59
16.0339,62
16.0525,57
16.0711,62
16.0896,61
16.1082,66
16.1268,71
16.1454,65
16.1639,73
16.1825,46
16.2011,54
16.2197,66
16.2382,64
16.2568,76
16.2754,63
16.2940,54
16.3125,44
16.3311,57
16.3497,61
16.3683,70
16.3868,59
16.4054,75
16.4240,58
16.4426,66
16.4611,50
16.4797,62
16.4983,59
16.5169,79
16.5354,58
16.5540,46
16.5726,47
16.5912,51
16.6097,50
16.6283,62
16.6469,64
16.6655,61
16.6841,58
16.7026,52
16.7212,54
16.7398,40
16.7584,48
16.7769,65
16.7955,62
16.8141,85
16.8327,59
16.8512,61
16.8698,68
16.8884,60
16.9070,48
16.9255,63
16.9441,57
16.9627,63
16.9813,53
16.9998,64
17.0184,64
17.0370,60
17.0556,58
17.0741,64
17.0927,65
17.1113,76
17.1299,64
17.1484,59
17.1670,41
17.1856,51
17.2042,61
17.2227,58
17.2413,69
17.2599,67
17.2785,50
17.2970,52
17.3156,67
17.3342,59
17.3528,71
17.3713,61
17.3899,74
17.4085,58
17.4271,53
17.4457,64
17.4642,67
17.4828,64
17.5014,69
17.5200,45
17.5385,67
17.5571,47
17.5757,61
17.5943,60
17.6128,55
17.6314,50
17.6500,56
17.6686,58
17.6871,54
17.7057,58
17.7243,62
17.7429,61
17.7614,56
17.7800,65
17.7986,51
17.8172,71
17.8357,72
17.8543,60
17.8729,57
17.8915,66
17.9100,70
17.9286,70
17.9472,58
17.9658,52
17.9843,56
18.0029,62
18.0215,58
18.0401,68
18.0586,55
18.0772,67
18.0958,61
18.1144,68
18.1329,54
18.1515,64
18.1701,47
18.1887,46
18.2073,64
18.2258,64
18.2444,55
18.2630,52
18.2816,53
18.3001,71
18.3187,53
18.3373,67
18.3559,73
18.3744,56
18.3930,74
18.4116,80
18.4302,63
18.4487,65
18.4673,55
18.4859,70
18.5045,76
18.5230,78
18.5416,62
18.5602,58
18.5788,53
18.5973,63
18.6159,61
18.6345,61
18.6531,51
18.6716,57
18.6902,51
18.7088,45
18.7274,55
18.7459,69
18.7645,68
18.7831,65
18.8017,52
18.8202,67
18.8388,62
18.8574,60
18.8760,54
18.8945,60
18.9131,44
18.9317,57
18.9503,68
18.9689,63
18.9874,67
19.0060,65
19.0246,57
19.0432,60
19.0617,72
19.0803,55
19.0989,62
19.1175,60
19.1360,63
19.1546,59
19.1732,83
19.1918,45
19.2103,66
19.2289,67
19.2475,72
19.2661,77
19.2846,72
19.3032,53
19.3218,75
19.3404,69
19.3589,52
19.3775,73
19.3961,54
19.4147,51
19.4332,62
19.4518,59
19.4704,63
19.4890,70
19.5075,63
19.5261,61
19.5447,69
19.5633,53
19.5818,64
19.6004,58
19.6190,55
19.6376,63
19.6561,57
19.6747,70
19.6933,73
19.7119,69
19.7305,57
19.7490,63
19.7676,68
19.7862,64
19.8048,54
19.8233,67
19.8419,70
19.8605,71
19.8791,65
19.8976,68
19.9162,44
19.9348,68
19.9534,65
19.9719,56
19.9905,67
20.0091,58
20.0277,62
20.0462,73
20.0648,63
20.0834,72
20.1020,60
20.1205,66
20.1391,78
20.1577,69
20.1763,58
20.1948,66
20.2134,68
20.2320,67
20.2506,62
20.2691,54
20.2877,61
20.3063,64
20.3249,71
20.3434,66
20.3620,69
20.3806,74
20.3992,49
20.4177,65
20.4363,76
20.4549,60
20.4735,50
20.4921,62
20.5106,78
20.5292,50
20.5478,53
20.5664,68
20.5849,63
20.6035,53
20.6221,71
20.6407,75
20.6592,57
20.6778,66
20.6964,64
20.7150,74
20.7335,73
20.7521,66
20.7707,63
20.7893,63
20.8078,66
20.8264,70
20.8450,61
20.8636,64
20.8821,69
20.9007,71
20.9193,63
20.9379,80
20.9564,81
20.9750,77
20.9936,79
21.0122,78
21.0307,79
21.0493,89
21.0679,69
21.0865,88
21.1050,84
21.1236,91
21.1422,92
21.1608,92
21.1793,100
21.1979,98
21.2165,124
21.2351,120
21.2537,113
21.2722,114
21.2908,105
21.3094,132
21.3280,154
21.3465,181
21.3651,206
21.3837,158
21.4023,145
21.4208,118
21.4394,88
21.4580,66
21.4766,88
21.4951,76
21.5137,65
21.5323,80
21.5509,66
21.5694,67
21.5880,75
21.6066,80
21.6252,64
21.6437,76
21.6623,72
21.6809,71
21.6995,70
21.7180,88
21.7366,79
21.7552,61
21.7738,58
21.7923,74
21.8109,72
21.8295,62
21.8481,62
21.8666,59
21.8852,62
21.9038,69
21.9224,66
21.9409,57
21.9595,63
21.9781,60
21.9967,90
22.0152,69
22.0338,68
22.0524,71
22.0710,63
22.0896,69
22.1081,69
22.1267,62
22.1453,72
22.1639,69
22.1824,75
22.2010,74
22.2196,65
22.2382,83
22.2567,75
22.2753,62
22.2939,87
22.3125,79
22.3310,59
22.3496,67
22.3682,76
22.3868,70
22.4053,67
22.4239,80
22.4425,68
22.4611,92
22.4796,73
22.4982,69
22.5168,74
22.5354,86
22.5539,79
22.5725,77
22.5911,79
22.6097,70
22.6282,56
22.6468,63
22.6654,76
22.6840,67
22.7025,73
22.7211,70
22.7397,77
22.7583,80
22.7768,67
22.7954,75
22.8140,75
22.8326,66
22.8512,80
22.8697,69
22.8883,71
22.9069,73
22.9255,66
22.9440,70
22.9626,70
22.9812,66
22.9998,91
23.0183,73
23.0369,86
23.0555,65
23.0741,81
23.0926,83
23.1112,82
23.1298,72
23.1484,76
23.1669,76
23.1855,68
23.2041,69
23.2227,83
23.2412,70
23.2598,85
23.2784,64
23.2970,74
23.3155,83
23.3341,84
23.3527,75
23.3713,69
23.3898,64
23.4084,88
23.4270,69
23.4456,66
23.4641,68
23.4827,62
23.5013,79
23.5199,70
23.5384,60
23.5570,59
23.5756,83
23.5942,68
23.6128,81
23.6313,65
23.6499,69
23.6685,77
23.6871,73
23.7056,80
23.7242,82
23.7428,88
23.7614,73
23.7799,82
23.7985,70
23.8171,68
23.8357,68
23.8542,71
23.8728,79
23.8914,85
23.9100,79
23.9285,84
23.9471,81
23.9657,68
23.9843,80
24.0028,82
24.0214,77
24.0400,62
24.0586,71
24.0771,75
24.0957,80
24.1143,61
24.1329,51
24.1514,76
24.1700,73
24.1886,60
24.2072,73
24.2257,79
24.2443,76
24.2629,80
24.2815,91
24.3000,67
24.3186,86
24.3372,82
24.3558,74
24.3744,64
24.3929,83
24.4115,72
24.4301,68
24.4487,68
24.4672,81
24.4858,69
24.5044,73
24.5230,76
24.5415,59
24.5601,65
24.5787,57
24.5973,79
24.6158,65
24.6344,89
24.6530,89
24.6716,59
24.6901,57
24.7087,78
24.7273,68
24.7459,69
24.7644,83
24.7830,63
24.8016,76
24.8202,73
24.8387,62
24.8573,80
24.8759,67
24.8945,78
24.9130,78
24.9316,78
24.9502,82
24.9688,78
24.9873,70
25.0059,62
25.0245,68
25.0431,65
25.0616,72
25.0802,75
25.0988,75
25.1174,79
25.1360,71
25.1545,78
25.1731,80
25.1917,69
25.2103,91
25.2288,68
25.2474,53
25.2660,67
25.2846,88
25.3031,68
25.3217,87
25.3403,71
25.3589,76
25.3774,60
25.3960,76
25.4146,67
25.4332,70
25.4517,58
25.4703,66
25.4889,67
25.5075,82
25.5260,67
25.5446,90
25.5632,62
25.5818,55
25.6003,83
25.6189,67
25.6375,75
25.6561,78
25.6746,72
25.6932,71
25.7118,77
25.7304,76
25.7489,61
25.7675,79
25.7861,68
25.8047,76
25.8232,71
25.8418,67
25.8604,72
25.8790,68
25.8976,66
25.9161,78
25.9347,56
25.9533,68
25.9719,57
25.9904,60
26.0090,63
26.0276,73
26.0462,83
26.0647,80
26.0833,58
26.1019,85
26.1205,84
26.1390,78
26.1576,68
26.1762,47
26.1948,72
26.2133,89
26.2319,68
26.2505,59
26.2691,67
26.2876,70
26.3062,77
26.3248,51
26.3434,69
26.3619,69
26.3805,71
26.3991,66
26.4177,68
26.4362,69
26.4548,66
26.4734,76
26.4920,72
26.5105,66
26.5291,68
26.5477,86
26.5663,76
26.5848,71
26.6034,69
26.6220,66
26.6406,57
26.6591,67
26.6777,67
26.6963,57
26.7149,87
26.7335,64
26.7520,64
26.7706,64
26.7892,83
26.8078,72
26.8263,68
26.8449,75
26.8635,74
26.8821,69
26.9006,69
26.9192,68
26.9378,85
26.9564,74
26.9749,67
26.9935,73
27.0121,62
27.0307,74
27.0492,85
27.0678,73
27.0864,66
27.1050,77
27.1235,72
27.1421,84
27.1607,89
27.1793,81
27.1978,69
27.2164,100
27.2350,80
27.2536,86
27.2721,76
27.2907,74
27.3093,78
27.3279,73
27.3464,60
27.3650,67
27.3836,76
27.4022,65
27.4207,85
27.4393,78
27.4579,68
27.4765,60
27.4951,67
27.5136,74
27.5322,71
27.5508,68
27.5694,59
27.5879,73
27.6065,55
27.6251,57
27.6437,62
27.6622,49
27.6808,64
27.6994,55
27.7180,59
27.7365,75
27.7551,53
27.7737,75
27.7923,66
27.8108,62
27.8294,59
27.8480,66
27.8666,69
27.8851,54
27.9037,55
27.9223,54
27.9409,66
27.9594,71
27.9780,64
27.9966,51
28.0152,54
28.0337,74
28.0523,64
28.0709,66
28.0895,66
28.1080,63
28.1266,83
28.1452,60
28.1638,64
28.1823,69
28.2009,72
28.2195,62
28.2381,56
28.2567,57
28.2752,63
28.2938,62
28.3124,67
28.3310,71
28.3495,62
28.3681,68
28.3867,69
28.4053,58
28.4238,65
28.4424,66
28.4610,60
28.4796,63
28.4981,50
28.5167,73
28.5353,71
28.5539,47
28.5724,63
28.5910,60
28.6096,68
28.6282,71
28.6467,47
28.6653,73
28.6839,62
28.7025,68
28.7210,51
28.7396,63
28.7582,38
28.7768,53
28.7953,61
28.8139,73
28.8325,58
28.8511,42
28.8696,56
28.8882,60
28.9068,53
28.9254,66
28.9439,57
28.9625,59
28.9811,68
28.9997,63
29.0183,57
29.0368,52
29.0554,54
29.0740,70
29.0926,79
29.1111,51
29.1297,44
29.1483,58
29.1669,59
29.1854,65
29.2040,64
29.2226,59
29.2412,58
29.2597,66
29.2783,55
29.2969,61
29.3155,50
29.3340,56
29.3526,55
29.3712,55
29.3898,71
29.4083,62
29.4269,55
29.4455,60
29.4641,67
29.4826,59
29.5012,52
29.5198,52
29.5384,58
29.5569,62
29.5755,56
29.5941,62
29.6127,71
29.6312,50
29.6498,52
29.6684,56
29.6870,53
29.7055,58
29.7241,55
29.7427,48
29.7613,54
29.7799,48
29.7984,61
29.8170,53
29.8356,62
29.8542,37
29.8727,51
29.8913,43
29.9099,61
29.9285,61
29.9470,68
29.9656,53
29.9842,55
30.0028,65
30.0213,59
30.0399,60
30.0585,63
30.0771,66
30.0956,50
30.1142,58
30.1328,54
30.1514,53
30.1699,53
30.1885,54
30.2071,63
30.2257,74
30.2442,58
30.2628,55
30.2814,65
30.3000,58
30.3185,69
30.3371,55
30.3557,104
30.3743,99
30.3928,128
30.4114,76
30.4300,84
30.4486,101
30.4671,101
30.4857,92
30.5043,74
30.5229,76
30.5415,48
30.5600,57
30.5786,61
30.5972,42
30.6158,55
30.6343,47
30.6529,58
30.6715,61
30.6901,62
30.7086,51
30.7272,55
30.7458,54
30.7644,55
30.7829,48
30.8015,55
30.8201,58
30.8387,64
30.8572,41
30.8758,50
30.8944,56
30.9130,49
30.9315,43
30.9501,53
30.9687,51
30.9873,56
31.0058,59
31.0244,60
31.0430,51
31.0616,65
31.0801,59
31.0987,58
31.1173,47
31.1359,55
31.1544,45
31.1730,44
31.1916,52
31.2102,58
31.2287,48
31.2473,60
31.2659,53
31.2845,54
31.3030,49
31.3216,41
31.3402,63
31.3588,53
31.3774,70
31.3959,49
31.4145,52
31.4331,52
31.4517,54
31.4702,38
31.4888,50
31.5074,45
31.5260,47
31.5445,54
31.5631,61
31.5817,59
31.6003,70
31.6188,57
31.6374,45
31.6560,42
31.6746,47
31.6931,49
31.7117,60
31.7303,49
31.7489,46
31.7674,54
31.7860,46
31.8046,41
31.8232,54
31.8417,44
31.8603,62
31.8789,54
31.8975,50
31.9160,42
31.9346,57
31.9532,46
31.9718,61
31.9903,55
32.0089,47
32.0275,57
32.0461,36
32.0646,40
32.0832,46
32.1018,49
32.1204,48
32.1390,50
32.1575,46
32.1761,48
32.1947,47
32.2133,38
32.2318,65
32.2504,38
32.2690,53
32.2876,57
32.3061,60
32.3247,46
32.3433,43
32.3619,53
32.3804,44
32.3990,39
32.4176,54
32.4362,59
32.4547,45
32.4733,67
32.4919,54
32.5105,44
32.5290,44
32.5476,45
32.5662,53
32.5848,44
32.6033,34
32.6219,61
32.6405,49
32.6591,46
32.6776,45
32.6962,54
32.7148,57
32.7334,55
32.7519,44
32.7705,55
32.7891,38
32.8077,41
32.8262,33
32.8448,56
32.8634,35
32.8820,39
32.9006,45
32.9191,42
32.9377,49
32.9563,56
32.9749,40
32.9934,45
33.0120,45
33.0306,50
33.0492,45
33.0677,53
33.0863,39
33.1049,57
33.1235,48
33.1420,44
33.1606,36
33.1792,44
33.1978,34
33.2163,60
33.2349,56
33.2535,37
33.2721,36
33.2906,45
33.3092,42
33.3278,37
33.3464,41
33.3649,36
33.3835,45
33.4021,42
33.4207,47
33.4392,48
33.4578,38
33.4764,44
33.4950,36
33.5135,44
33.5321,44
33.5507,52
33.5693,38
33.5878,42
33.6064,51
33.6250,36
33.6436,41
33.6622,38
33.6807,43
33.6993,38
33.7179,35
33.7365,42
33.7550,40
33.7736,52
33.7922,39
33.8108,39
33.8293,59
33.8479,40
33.8665,40
33.8851,50
33.9036,45
33.9222,45
33.9408,44
33.9594,42
33.9779,48
33.9965,35
34.0151,38
34.0337,47
34.0522,41
34.0708,53
34.0894,53
34.1080,34
34.1265,51
34.1451,37
34.1637,31
34.1823,50
34.2008,40
34.2194,39
34.2380,40
34.2566,47
34.2751,50
34.2937,45
34.3123,44
34.3309,35
34.3494,42
34.3680,32
34.3866,48
34.4052,42
34.4238,56
34.4423,31
34.4609,40
34.4795,45
34.4981,46
34.5166,31
34.5352,28
34.5538,50
34.5724,31
34.5909,50
34.6095,49
34.6281,46
34.6467,55
34.6652,54
34.6838,46
34.7024,62
34.7210,56
34.7395,48
34.7581,55
34.7767,56
34.7953,68
34.8138,58
34.8324,44
34.8510,66
34.8696,60
34.8881,50
34.9067,46
34.9253,36
34.9439,42
34.9624,38
34.9810,30
34.9996,36
35.0182,39
35.0367,42
35.0553,53
35.0739,46
35.0925,40
35.1110,42
35.1296,38
35.1482,38
35.1668,29
35.1854,41
35.2039,35
35.2225,47
35.2411,30
35.2597,46
35.2782,38
35.2968,43
35.3154,33
35.3340,36
35.3525,40
35.3711,34
35.3897,38
35.4083,46
35.4268,29
35.4454,34
35.4640,35
35.4826,37
35.5011,39
35.5197,33
35.5383,32
35.5569,39
35.5754,32
35.5940,32
35.6126,33
35.6312,47
35.6497,35
35.6683,31
35.6869,32
35.7055,29
35.7240,39
35.7426,35
35.7612,39
35.7798,32
35.7983,32
35.8169,37
35.8355,29
35.8541,38
35.8726,27
35.8912,34
35.9098,47
35.9284,28
35.9469,41
35.9655,42
35.9841,36
36.0027,41
36.0213,24
36.0398,31
36.0584,31
36.0770,34
36.0956,31
36.1141,32
36.1327,27
36.1513,36
36.1699,34
36.1884,38
36.2070,30
36.2256,37
36.2442,42
36.2627,35
36.2813,33
36.2999,34
36.3185,35
36.3370,41
36.3556,39
36.3742,33
36.3928,35
36.4113,36
36.4299,35
36.4485,37
36.4671,45
36.4856,34
36.5042,30
36.5228,35
36.5414,39
36.5599,32
36.5785,41
36.5971,46
36.6157,29
36.6342,29
36.6528,33
36.6714,30
36.6900,30
36.7085,43
36.7271,31
36.7457,35
36.7643,29
36.7829,45
36.8014,36
36.8200,41
36.8386,36
36.8572,36
36.8757,34
36.8943,26
36.9129,41
36.9315,38
36.9500,38
36.9686,42
36.9872,31
37.0058,25
37.0243,29
37.0429,39
37.0615,40
37.0801,47
37.0986,38
37.1172,25
37.1358,40
37.1544,54
37.1729,38
37.1915,31
37.2101,29
37.2287,33
37.2472,33
37.2658,34
37.2844,31
37.3030,31
37.3215,33
37.3401,40
37.3587,25
37.3773,39
37.3958,39
37.4144,45
37.4330,49
37.4516,53
37.4701,58
37.4887,38
37.5073,52
37.5259,40
37.5445,44
37.5630,49
37.5816,39
37.6002,29
37.6188,28
37.6373,27
37.6559,21
37.6745,39
37.6931,30
37.7116,36
37.7302,27
37.7488,43
37.7674,44
37.7859,27
37.8045,35
37.8231,24
37.8417,48
37.8602,34
37.8788,19
37.8974,43
37.9160,35
37.9345,25
37.9531,31
37.9717,38
37.9903,21
38.0088,23
38.0274,33
38.0460,35
38.0646,18
38.0831,33
38.1017,28
38.1203,24
38.1389,38
38.1574,34
38.1760,33
38.1946,32
38.2132,35
38.2317,35
38.2503,36
38.2689,30
38.2875,31
38.3061,29
38.3246,32
38.3432,24
38.3618,37
38.3804,28
38.3989,34
38.4175,30
38.4361,28
38.4547,30
38.4732,44
38.4918,20
38.5104,35
38.5290,39
38.5475,31
38.5661,25
38.5847,29
38.6033,32
38.6218,29
38.6404,36
38.6590,41
38.6776,30
38.6961,40
38.7147,32
38.7333,31
38.7519,47
38.7704,26
38.7890,36
38.8076,18
38.8262,36
38.8447,32
38.8633,34
38.8819,47
38.9005,38
38.9190,34
38.9376,30
38.9562,33
38.9748,28
38.9933,23
39.0119,24
39.0305,27
39.0491,26
39.0677,34
39.0862,31
39.1048,32
39.1234,29
39.1420,28
39.1605,24
39.1791,44
39.1977,39
39.2163,28
39.2348,29
39.2534,31
39.2720,30
39.2906,30
39.3091,33
39.3277,20
39.3463,36
39.3649,29
39.3834,27
39.4020,29
39.4206,25
39.4392,21
39.4577,25
39.4763,50
39.4949,29
39.5135,29
39.5320,31
39.5506,22
39.5692,33
39.5878,21
39.6063,29
39.6249,28
39.6435,32
39.6621,33
39.6806,27
39.6992,33
39.7178,33
39.7364,26
39.7549,28
39.7735,38
39.7921,37
39.8107,33
39.8293,27
39.8478,32
39.8664,27
39.8850,30
39.9036,31
39.9221,32
39.9407,35
39.9593,31
39.9779,19
39.9964,29
40.0150,27
40.0336,28
40.0522,24
40.0707,25
40.0893,33
40.1079,30
40.1265,27
40.1450,42
40.1636,21
40.1822,37
40.2008,29
40.2193,25
40.2379,34
40.2565,31
40.2751,27
40.2936,32
40.3122,33
40.3308,33
40.3494,23
40.3679,29
40.3865,26
40.4051,33
40.4237,29
40.4422,30
40.4608,28
40.4794,23
40.4980,25
40.5165,26
40.5351,26
40.5537,30
40.5723,26
40.5908,29
40.6094,27
40.6280,29
40.6466,36
40.6652,29
40.6837,32
40.7023,33
40.7209,17
40.7395,22
40.7580,28
40.7766,27
40.7952,26
40.8138,26
40.8323,28
40.8509,32
40.8695,31
40.8881,27
40.9066,29
40.9252,25
40.9438,38
40.9624,20
40.9809,25
40.9995,36
41.0181,41
41.0367,32
41.0552,30
41.0738,27
41.0924,22
41.1110,16
41.1295,25
41.1481,23
41.1667,17
41.1853,25
41.2038,29
41.2224,29
41.2410,27
41.2596,23
41.2781,33
41.2967,22
41.3153,29
41.3339,28
41.3524,25
41.3710,32
41.3896,27
41.4082,36
41.4268,29
41.4453,30
41.4639,21
41.4825,22
41.5011,29
41.5196,30
41.5382,37
41.5568,30
41.5754,19
41.5939,25
41.6125,27
41.6311,27
41.6497,23
41.6682,24
41.6868,32
41.7054,25
41.7240,27
41.7425,28
41.7611,32
41.7797,34
41.7983,28
41.8168,23
41.8354,34
41.8540,31
41.8726,31
41.8911,28
41.9097,35
41.9283,25
41.9469,20
41.9654,29
41.9840,19
42.0026,28
42.0212,27
42.0397,30
42.0583,32
42.0769,32
42.0955,27
42.1140,28
42.1326,26
42.1512,22
42.1698,32
42.1884,40
42.2069,32
42.2255,32
42.2441,21
42.2627,34
42.2812,21
42.2998,24
42.3184,28
42.3370,22
42.3555,30
42.3741,28
42.3927,17
42.4113,20
42.4298,26
42.4484,24
42.4670,29
42.4856,27
42.5041,36
42.5227,16
42.5413,24
42.5599,26
42.5784,25
42.5970,30
42.6156,22
42.6342,34
42.6527,17
42.6713,40
42.6899,30
42.7085,31
42.7270,24
42.7456,29
42.7642,22
42.7828,38
42.8013,27
42.8199,24
42.8385,28
42.8571,28
42.8756,24
42.8942,27
42.9128,19
42.9314,27
42.9500,29
42.9685,32
42.9871,34
43.0057,29
43.0243,18
43.0428,20
43.0614,32
43.0800,28
43.0986,23
43.1171,35
43.1357,30
43.1543,30
43.1729,31
43.1914,29
43.2100,28
43.2286,35
43.2472,33
43.2657,33
43.2843,38
43.3029,35
43.3215,24
43.3400,31
43.3586,30
43.3772,28
43.3958,31
43.4143,35
43.4329,40
43.4515,27
43.4701,31
43.4886,46
43.5072,38
43.5258,33
43.5444,37
43.5629,30
43.5815,26
43.6001,47
43.6187,35
43.6372,38
43.6558,39
43.6744,22
43.6930,26
43.7116,33
43.7301,30
43.7487,30
43.7673,29
43.7859,39
43.8044,26
43.8230,27
43.8416,27
43.8602,28
43.8787,26
43.8973,33
43.9159,19
43.9345,28
43.9530,34
43.9716,30
43.9902,27
44.0088,34
44.0273,35
44.0459,27
44.0645,26
44.0831,35
44.1016,28
44.1202,27
44.1388,27
44.1574,22
44.1759,25
44.1945,30
44.2131,23
44.2317,34
44.2502,29
44.2688,21
44.2874,30
44.3060,26
44.3245,44
44.3431,30
44.3617,33
44.3803,30
44.3988,33
44.4174,25
44.4360,31
44.4546,29
44.4732,24
44.4917,29
44.5103,28
44.5289,27
44.5475,30
44.5660,34
44.5846,28
44.6032,31
44.6218,35
44.6403,37
44.6589,29
44.6775,33
44.6961,34
44.7146,31
44.7332,21
44.7518,28
44.7704,26
44.7889,29
44.8075,21
44.8261,26
44.8447,18
44.8632,22
44.8818,22
44.9004,24
44.9190,28
44.9375,26
44.9561,28
44.9747,29
44.9933,24
45.0118,33
45.0304,28
45.0490,29
45.0676,20
45.0861,31
45.1047,24
45.1233,19
45.1419,21
45.1604,35
45.1790,22
45.1976,22
45.2162,35
45.2347,26
45.2533,24
45.2719,25
45.2905,23
45.3091,24
45.3276,28
45.3462,19
45.3648,26
45.3834,20
45.4019,35
45.4205,26
45.4391,20
45.4577,26
45.4762,24
45.4948,32
45.5134,24
45.5320,22
45.5505,33
45.5691,26
45.5877,29
45.6063,22
45.6248,28
45.6434,24
45.6620,24
45.6806,28
45.6991,23
45.7177,20
45.7363,25
45.7549,30
45.7734,24
45.7920,27
45.8106,28
45.8292,22
45.8477,27
45.8663,40
45.8849,20
45.9035,33
45.9220,28
45.9406,24
45.9592,21
45.9778,32
45.9963,22
46.0149,27
46.0335,24
46.0521,32
46.0707,33
46.0892,28
46.1078,31
46.1264,30
46.1450,23
46.1635,20
46.1821,17
46.2007,16
46.2193,30
46.2378,16
46.2564,38
46.2750,16
46.2936,32
46.3121,27
46.3307,30
46.3493,25
46.3679,22
46.3864,35
46.4050,15
46.4236,28
46.4422,28
46.4607,25
46.4793,19
46.4979,26
46.5165,34
46.5350,29
46.5536,29
46.5722,28
46.5908,27
46.6093,21
46.6279,24
46.6465,25
46.6651,24
46.6836,24
46.7022,23
46.7208,27
46.7394,27
46.7579,19
46.7765,25
46.7951,25
46.8137,22
46.8323,23
46.8508,39
46.8694,31
46.8880,28
46.9066,23
46.9251,23
46.9437,18
46.9623,15
46.9809,23
46.9994,25
47.0180,23
47.0366,17
47.0552,24
47.0737,19
47.0923,23
47.1109,23
47.1295,22
47.1480,26
47.1666,20
47.1852,29
47.2038,29
47.2223,22
47.2409,26
47.2595,16
47.2781,16
47.2966,25
47.3152,26
47.3338,30
47.3524,21
47.3709,30
47.3895,25
47.4081,31
47.4267,22
47.4452,23
47.4638,18
47.4824,34
47.5010,20
47.5195,27
47.5381,23
47.5567,26
47.5753,16
47.5939,19
47.6124,23
47.6310,31
47.6496,33
47.6682,17
47.6867,13
47.7053,14
47.7239,15
47.7425,23
47.7610,16
47.7796,13
47.7982,24
47.8168,25
47.8353,26
47.8539,21
47.8725,18
47.8911,12
47.9096,11
47.9282,25
47.9468,15
47.9654,22
47.9839,28
48.0025,21
48.0211,15
48.0397,23
48.0582,27
48.0768,20
48.0954,29
48.1140,12
48.1325,28
48.1511,16
48.1697,20
48.1883,21
48.2068,17
48.2254,25
48.2440,23
48.2626,24
48.2811,25
48.2997,18
48.3183,14
48.3369,28
48.3555,28
48.3740,17
48.3926,41
48.4112,34
48.4298,31
48.4483,16
48.4669,26
48.4855,16
48.5041,22
48.5226,21
48.5412,27
48.5598,27
48.5784,29
48.5969,19
48.6155,22
48.6341,29
48.6527,18
48.6712,22
48.6898,29
48.7084,20
48.7270,30
48.7455,27
48.7641,24
48.7827,25
48.8013,26
48.8198,28
48.8384,18
48.8570,18
48.8756,26
48.8941,26
48.9127,34
48.9313,33
48.9499,45
48.9684,46
48.9870,39
49.0056,33
49.0242,18
49.0427,27
49.0613,43
49.0799,37
49.0985,34
49.1171,25
49.1356,19
49.1542,27
49.1728,25
49.1914,23
49.2099,25
49.2285,18
49.2471,25
49.2657,24
49.2842,24
49.3028,29
49.3214,24
49.3400,18
49.3585,22
49.3771,29
49.3957,22
49.4143,30
49.4328,18
49.4514,20
49.4700,20
49.4886,34
49.5071,21
49.5257,30
49.5443,23
49.5629,19
49.5814,18
49.6000,21
49.6186,20
49.6372,20
49.6557,12
49.6743,22
49.6929,28
49.7115,21
49.7300,39
49.7486,25
49.7672,20
49.7858,19
49.8043,35
49.8229,24
49.8415,20
49.8601,13
49.8786,30
49.8972,29
49.9158,24
49.9344,24
49.9530,19
49.9715,25
49.9901,23
50.0087,18
50.0273,26
50.0458,23
50.0644,19
50.0830,18
50.1016,21
50.1201,26
50.1387,27
50.1573,23
50.1759,22
50.1944,27
50.2130,19
50.2316,21
50.2502,18
50.2687,31
50.2873,21
50.3059,24
50.3245,24
50.3430,20
50.3616,31
50.3802,28
50.3988,20
50.4173,16
50.4359,30
50.4545,18
50.4731,22
50.4916,20
50.5102,20
50.5288,32
50.5474,23
50.5659,16
50.5845,25
50.6031,28
50.6217,29
50.6402,19
50.6588,26
50.6774,18
50.6960,22
50.7146,19
50.7331,24
50.7517,25
50.7703,19
50.7889,27
50.8074,13
50.8260,23
50.8446,20
50.8632,16
50.8817,21
50.9003,22
50.9189,21
50.9375,23
50.9560,23
50.9746,11
50.9932,28
51.0118,24
51.0303,28
51.0489,17
51.0675,20
51.0861,25
51.1046,27
51.1232,19
51.1418,19
51.1604,17
51.1789,18
51.1975,22
51.2161,25
51.2347,26
51.2532,22
51.2718,29
51.2904,24
51.3090,20
51.3275,35
51.3461,24
51.3647,25
51.3833,17
51.4018,23
51.4204,33
51.4390,28
51.4576,18
51.4762,25
51.4947,22
51.5133,26
51.5319,36
51.5505,23
51.5690,19
51.5876,21
51.6062,22
51.6248,26
51.6433,26
51.6619,18
51.6805,19
51.6991,19
51.7176,20
51.7362,25
51.7548,30
51.7734,16
51.7919,31
51.8105,21
51.8291,18
51.8477,21
51.8662,23
51.8848,23
51.9034,27
51.9220,20
51.9405,31
51.9591,25
51.9777,17
51.9963,15
52.0148,24
52.0334,15
52.0520,18
52.0706,19
52.0891,29
52.1077,22
52.1263,27
52.1449,21
52.1634,20
52.1820,21
52.2006,22
52.2192,26
52.2378,18
52.2563,15
52.2749,21
52.2935,19
52.3121,22
52.3306,15
52.3492,18
52.3678,24
52.3864,27
52.4049,32
52.4235,30
52.4421,22
52.4607,19
52.4792,21
52.4978,23
52.5164,22
52.5350,18
52.5535,12
52.5721,24
52.5907,17
52.6093,22
52.6278,25
52.6464,20
52.6650,20
52.6836,24
52.7021,20
52.7207,25
52.7393,17
52.7579,12
52.7764,28
52.7950,20
52.8136,20
52.8322,30
52.8507,20
52.8693,23
52.8879,27
52.9065,23
52.9250,21
52.9436,19
52.9622,27
52.9808,25
52.9994,28
53.0179,19
53.0365,20
53.0551,27
53.0737,22
53.0922,22
53.1108,19
53.1294,22
53.1480,26
53.1665,21
53.1851,20
53.2037,17
53.2223,26
53.2408,19
53.2594,23
53.2780,26
53.2966,25
53.3151,26
53.3337,19
53.3523,23
53.3709,21
53.3894,22
53.4080,20
53.4266,19
53.4452,19
53.4637,21
53.4823,21
53.5009,20
53.5195,20
53.5380,18
53.5566,13
53.5752,21
53.5938,21
53.6123,21
53.6309,28
53.6495,16
53.6681,19
53.6866,20
53.7052,14
53.7238,19
53.7424,25
53.7610,21
53.7795,24
53.7981,18
53.8167,20
53.8353,18
53.8538,19
53.8724,20
53.8910,22
53.9096,29
53.9281,23
53.9467,25
53.9653,26
53.9839,34
54.0024,21
54.0210,28
54.0396,28
54.0582,15
54.0767,14
54.0953,34
54.1139,38
54.1325,31
54.1510,24
54.1696,21
54.1882,23
54.2068,14
54.2253,35
54.2439,19
54.2625,29
54.2811,19
54.2996,23
54.3182,17
54.3368,24
54.3554,19
54.3739,22
54.3925,13
54.4111,24
54.4297,12
54.4482,26
54.4668,17
54.4854,20
54.5040,22
54.5225,27
54.5411,18
54.5597,22
54.5783,21
54.5969,18
54.6154,17
54.6340,18
54.6526,17
54.6712,7
54.6897,20
54.7083,27
54.7269,19
54.7455,22
54.7640,11
54.7826,16
54.8012,17
54.8198,25
54.8383,25
54.8569,16
54.8755,22
54.8941,21
54.9126,23
54.9312,19
54.9498,25
54.9684,23
54.9869,28
55.0055,18
55.0241,16
55.0427,28
55.0612,23
55.0798,21
55.0984,17
55.1170,18
55.1355,17
55.1541,15
55.1727,18
55.1913,15
55.2098,15
55.2284,19
55.2470,23
55.2656,19
55.2841,26
55.3027,19
55.3213,22
55.3399,20
55.3585,21
55.3770,11
55.3956,24
55.4142,24
55.4328,16
55.4513,19
55.4699,26
55.4885,20
55.5071,25
55.5256,21
55.5442,21
55.5628,18
55.5814,25
55.5999,13
55.6185,19
55.6371,25
55.6557,24
55.6742,19
55.6928,20
55.7114,15
55.7300,14
55.7485,22
55.7671,16
55.7857,17
55.8043,19
55.8228,29
55.8414,24
55.8600,25
55.8786,23
55.8971,21
55.9157,21
55.9343,32
55.9529,16
55.9714,27
55.9900,23
56.0086,13
56.0272,15
56.0457,24
56.0643,16
56.0829,23
56.1015,18
56.1201,24
56.1386,25
56.1572,20
56.1758,28
56.1944,23
56.2129,21
56.2315,25
56.2501,26
56.2687,23
56.2872,23
56.3058,26
56.3244,21
56.3430,19
56.3615,34
56.3801,38
56.3987,22
56.4173,21
56.4358,15
56.4544,19
56.4730,13
56.4916,18
56.5101,26
56.5287,20
56.5473,17
56.5659,28
56.5844,13
56.6030,29
56.6216,24
56.6402,23
56.6587,19
56.6773,26
56.6959,25
56.7145,19
56.7330,19
56.7516,24
56.7702,14
56.7888,18
56.8073,25
56.8259,19
56.8445,20
56.8631,26
56.8817,21
56.9002,23
56.9188,20
56.9374,22
56.9560,24
56.9745,19
56.9931,20
57.0117,27
57.0303,21
57.0488,18
57.0674,17
57.0860,23
57.1046,18
57.1231,24
57.1417,21
57.1603,25
57.1789,20
57.1974,23
57.2160,14
57.2346,19
57.2532,21
57.2717,21
57.2903,22
57.3089,16
57.3275,24
57.3460,18
57.3646,17
57.3832,14
57.4018,11
57.4203,16
57.4389,17
57.4575,22
57.4761,19
57.4946,18
57.5132,16
57.5318,21
57.5504,22
57.5689,24
57.5875,21
57.6061,24
57.6247,20
57.6433,21
57.6618,22
57.6804,19
57.6990,23
57.7176,25
57.7361,19
57.7547,26
57.7733,20
57.7919,20
57.8104,14
57.8290,25
57.8476,18
57.8662,27
57.8847,24
57.9033,20
57.9219,22
57.9405,21
57.9590,30
57.9776,18
57.9962,19
58.0148,23
58.0333,17
58.0519,27
58.0705,19
58.0891,18
58.1076,26
58.1262,19
58.1448,23
58.1634,17
58.1819,20
58.2005,30
58.2191,21
58.2377,18
58.2562,20
58.2748,27
58.2934,19
58.3120,16
58.3305,12
58.3491,20
58.3677,19
58.3863,25
58.4049,22
58.4234,14
58.4420,18
58.4606,20
58.4792,18
58.4977,20
58.5163,22
58.5349,31
58.5535,22
58.5720,17
58.5906,19
58.6092,21
58.6278,22
58.6463,21
58.6649,18
58.6835,26
58.7021,21
58.7206,22
58.7392,21
58.7578,20
58.7764,17
58.7949,17
58.8135,22
58.8321,16
58.8507,21
58.8692,14
58.8878,21
58.9064,14
58.9250,19
58.9435,17
58.9621,21
58.9807,21
58.9993,24
59.0178,20
59.0364,23
59.0550,22
59.0736,18
59.0921,19
59.1107,18
59.1293,19
59.1479,18
59.1664,23
59.1850,18
59.2036,23
59.2222,21
59.2408,19
59.2593,13
59.2779,23
59.2965,27
59.3151,16
59.3336,23
59.3522,20
59.3708,13
59.3894,18
59.4079,24
59.4265,20
59.4451,12
59.4637,15
59.4822,26
59.5008,25
59.5194,20
59.5380,22
59.5565,25
59.5751,21
59.5937,21
59.6123,17
59.6308,24
59.6494,18
59.6680,13
59.6866,27
59.7051,20
59.7237,14
59.7423,16
59.7609,25
59.7794,20
59.7980,20
59.8166,13
59.8352,22
59.8537,23
59.8723,24
59.8909,21
59.9095,15
59.9280,12
59.9466,20
59.9652,18
59.9838,21
60.0024,16
