; (content of file Y:\Sam\Apurva-07-20-2022\puck1\ML_20220721_23_SJD_0_LaB6-4min.raw)
_FILEVERSION = 3
_SAMPLE = ML_20220721_23_SJD_0_LaB6-4min
_+SAMPLE = 
_SITE = USA
_USER = Administrator
_GONIOMETER_CODE = 20
; Goniometer : D8 theta/2theta, stage : Unknown
_ATTACHMENTS_CODE = 0
_GONIOMETER_RADIUS = 200.5
_FIXED_DIVSLIT = 0.6
_FIXED_SAMPLESLIT = 0
_SOLLER_SLITS = 2
_FIXED_DETSLIT = 9.55
_MONOCHROMATOR = 0
; Incident beam monochromator : None
_SOLLER_SLITS_2 = N
_THIN_FILM = N
_BETA_FILTER = Y
_FIXED_ANTISLIT = 5.89
_ANALYZER_CODE = 0
; Received beam analyzer : None
_DATEMEASURED = "25-Jul-2022 15:35:39"
_WL_UNIT = A
_WL1 = 1.5406
_WL2 = 1.54439
_WL3 = 1.39222
_WLRATIO = 0.5
_ANODE = Cu
_V4_INF_CREATOR = XRDWizard
_V4_INF_CREATOR_VERSION = V2.9.0.22
_V4_INF_WIZARD_VERSION = V2.9.0.22
_V4_INF_WIZARD_ADDINS = V2.9.0.22
_V4_INF_WIZARD_DOCTYPE = XRD
_V4_INF_OSUSER = McQueenLab
_V4_INF_USER = Administrator
_V4_INF_SITE = USA
_V4_INF_SAMPLEID = ML_20220721_23_SJD_0_LaB6-4min

; Data for range 1
_DRIVE = COUPLED
_STEPTIME = 11.28
_STEPSIZE = 0.0185756
_STEPMODE = C
_START = 5
_THETA = 2.5
_2THETA = 5
_KHI = 0
_PHI = 0
_X = 0
_Y = 0
_Z = 0
_DETECTOR = 5
; Detector type : Unknown
_DETECTORSLIT = unkn
_AUX1 = 0
_AUX2 = 0
_AUX3 = 0
_TIMESTARTED = 15
_TEMP_RATE = -1
_TEMP_DELAY = -1
_KV = 40
_MA = 40
_RANGE_WL = 1.5406
_3DPLANE = 0
_V4_ADDITIONALDETECTOR = 257
_V4_PSD2THETA = 3.365
_V4_PSDCHANNEL1 = 0
_V4_PSDAPERTURE = 12.68
_V4_PSDTYPE = 5
_V4_PSDFIXED = 0
_V4_COUNTERS_MASK = 4096
_V4_DRIVES_MASK = 0
_V4_ENCODERS_MASK = 0
_2THETACOUNTS = 1
; 2THETA  PSD
   5.0000        286
   5.0186        269
   5.0372        251
   5.0557        269
   5.0743        277
   5.0929        279
   5.1115        238
   5.1300        242
   5.1486        232
   5.1672        245
   5.1858        277
   5.2043        236
   5.2229        229
   5.2415        225
   5.2601        237
   5.2786        281
   5.2972        243
   5.3158        203
   5.3344        225
   5.3529        225
   5.3715        215
   5.3901        215
   5.4087        238
   5.4272        238
   5.4458        237
   5.4644        257
   5.4830        239
   5.5015        233
   5.5201        231
   5.5387        233
   5.5573        253
   5.5758        232
   5.5944        220
   5.6130        218
   5.6316        239
   5.6501        229
   5.6687        217
   5.6873        223
   5.7059        230
   5.7244        222
   5.7430        226
   5.7616        201
   5.7802        226
   5.7988        189
   5.8173        183
   5.8359        197
   5.8545        233
   5.8731        179
   5.8916        208
   5.9102        202
   5.9288        219
   5.9474        224
   5.9659        206
   5.9845        218
   6.0031        196
   6.0217        213
   6.0402        193
   6.0588        181
   6.0774        179
   6.0960        185
   6.1145        199
   6.1331        181
   6.1517        181
   6.1703        231
   6.1888        187
   6.2074        192
   6.2260        208
   6.2446        207
   6.2631        171
   6.2817        177
   6.3003        196
   6.3189        186
   6.3374        177
   6.3560        200
   6.3746        200
   6.3932        175
   6.4117        192
   6.4303        165
   6.4489        172
   6.4675        166
   6.4860        172
   6.5046        169
   6.5232        178
   6.5418        172
   6.5604        168
   6.5789        180
   6.5975        156
   6.6161        148
   6.6347        149
   6.6532        174
   6.6718        176
   6.6904        168
   6.7090        191
   6.7275        158
   6.7461        176
   6.7647        165
   6.7833        174
   6.8018        161
   6.8204        167
   6.8390        193
   6.8576        154
   6.8761        175
   6.8947        193
   6.9133        177
   6.9319        144
   6.9504        170
   6.9690        166
   6.9876        193
   7.0062        168
   7.0247        166
   7.0433        167
   7.0619        172
   7.0805        163
   7.0990        160
   7.1176        149
   7.1362        185
   7.1548        171
   7.1733        157
   7.1919        169
   7.2105        151
   7.2291        186
   7.2476        141
   7.2662        121
   7.2848        160
   7.3034        152
   7.3220        163
   7.3405        167
   7.3591        165
   7.3777        168
   7.3963        191
   7.4148        186
   7.4334        168
   7.4520        173
   7.4706        185
   7.4891        160
   7.5077        163
   7.5263        173
   7.5449        178
   7.5634        174
   7.5820        162
   7.6006        150
   7.6192        167
   7.6377        184
   7.6563        150
   7.6749        162
   7.6935        171
   7.7120        177
   7.7306        173
   7.7492        166
   7.7678        195
   7.7863        173
   7.8049        198
   7.8235        186
   7.8421        185
   7.8606        172
   7.8792        170
   7.8978        205
   7.9164        198
   7.9349        205
   7.9535        209
   7.9721        197
   7.9907        184
   8.0092        167
   8.0278        191
   8.0464        168
   8.0650        179
   8.0835        187
   8.1021        165
   8.1207        181
   8.1393        205
   8.1579        208
   8.1764        188
   8.1950        185
   8.2136        167
   8.2322        183
   8.2507        189
   8.2693        190
   8.2879        176
   8.3065        181
   8.3250        210
   8.3436        190
   8.3622        245
   8.3808        195
   8.3993        218
   8.4179        223
   8.4365        190
   8.4551        197
   8.4736        212
   8.4922        207
   8.5108        216
   8.5294        176
   8.5479        196
   8.5665        205
   8.5851        202
   8.6037        182
   8.6222        215
   8.6408        210
   8.6594        212
   8.6780        227
   8.6965        201
   8.7151        208
   8.7337        222
   8.7523        229
   8.7708        193
   8.7894        194
   8.8080        197
   8.8266        207
   8.8451        221
   8.8637        222
   8.8823        204
   8.9009        215
   8.9195        210
   8.9380        193
   8.9566        200
   8.9752        211
   8.9938        217
   9.0123        237
   9.0309        205
   9.0495        213
   9.0681        225
   9.0866        229
   9.1052        211
   9.1238        209
   9.1424        218
   9.1609        231
   9.1795        254
   9.1981        223
   9.2167        227
   9.2352        225
   9.2538        216
   9.2724        220
   9.2910        217
   9.3095        221
   9.3281        226
   9.3467        229
   9.3653        230
   9.3838        197
   9.4024        224
   9.4210        229
   9.4396        220
   9.4581        234
   9.4767        209
   9.4953        239
   9.5139        227
   9.5324        211
   9.5510        227
   9.5696        198
   9.5882        236
   9.6067        255
   9.6253        218
   9.6439        236
   9.6625        261
   9.6811        216
   9.6996        219
   9.7182        240
   9.7368        246
   9.7554        239
   9.7739        221
   9.7925        257
   9.8111        263
   9.8297        239
   9.8482        287
   9.8668        236
   9.8854        191
   9.9040        253
   9.9225        240
   9.9411        249
   9.9597        229
   9.9783        278
   9.9968        245
  10.0154        227
  10.0340        220
  10.0526        248
  10.0711        220
  10.0897        240
  10.1083        231
  10.1269        240
  10.1454        250
  10.1640        267
  10.1826        256
  10.2012        239
  10.2197        257
  10.2383        247
  10.2569        266
  10.2755        249
  10.2940        238
  10.3126        268
  10.3312        255
  10.3498        222
  10.3683        237
  10.3869        240
  10.4055        224
  10.4241        242
  10.4427        267
  10.4612        235
  10.4798        275
  10.4984        253
  10.5170        255
  10.5355        253
  10.5541        260
  10.5727        244
  10.5913        249
  10.6098        236
  10.6284        247
  10.6470        253
  10.6656        229
  10.6841        252
  10.7027        247
  10.7213        252
  10.7399        250
  10.7584        238
  10.7770        231
  10.7956        250
  10.8142        242
  10.8327        246
  10.8513        252
  10.8699        227
  10.8885        246
  10.9070        242
  10.9256        262
  10.9442        226
  10.9628        227
  10.9813        251
  10.9999        278
  11.0185        255
  11.0371        227
  11.0556        241
  11.0742        248
  11.0928        222
  11.1114        248
  11.1299        233
  11.1485        228
  11.1671        239
  11.1857        257
  11.2043        247
  11.2228        253
  11.2414        235
  11.2600        249
  11.2786        225
  11.2971        254
  11.3157        256
  11.3343        249
  11.3529        238
  11.3714        226
  11.3900        239
  11.4086        260
  11.4272        261
  11.4457        258
  11.4643        245
  11.4829        244
  11.5015        239
  11.5200        236
  11.5386        239
  11.5572        235
  11.5758        236
  11.5943        242
  11.6129        249
  11.6315        238
  11.6501        253
  11.6686        247
  11.6872        250
  11.7058        226
  11.7244        226
  11.7429        246
  11.7615        252
  11.7801        225
  11.7987        244
  11.8172        233
  11.8358        230
  11.8544        214
  11.8730        240
  11.8915        220
  11.9101        220
  11.9287        256
  11.9473        241
  11.9659        243
  11.9844        214
  12.0030        228
  12.0216        249
  12.0402        257
  12.0587        238
  12.0773        220
  12.0959        225
  12.1145        234
  12.1330        231
  12.1516        216
  12.1702        241
  12.1888        226
  12.2073        232
  12.2259        219
  12.2445        224
  12.2631        200
  12.2816        272
  12.3002        207
  12.3188        208
  12.3374        239
  12.3559        226
  12.3745        221
  12.3931        242
  12.4117        204
  12.4302        194
  12.4488        216
  12.4674        220
  12.4860        230
  12.5045        223
  12.5231        198
  12.5417        231
  12.5603        225
  12.5788        217
  12.5974        202
  12.6160        211
  12.6346        184
  12.6531        209
  12.6717        199
  12.6903        179
  12.7089        214
  12.7274        200
  12.7460        207
  12.7646        223
  12.7832        213
  12.8018        237
  12.8203        232
  12.8389        213
  12.8575        218
  12.8761        190
  12.8946        215
  12.9132        222
  12.9318        206
  12.9504        211
  12.9689        200
  12.9875        222
  13.0061        219
  13.0247        223
  13.0432        197
  13.0618        197
  13.0804        200
  13.0990        216
  13.1175        201
  13.1361        212
  13.1547        221
  13.1733        209
  13.1918        203
  13.2104        192
  13.2290        190
  13.2476        206
  13.2661        180
  13.2847        206
  13.3033        188
  13.3219        181
  13.3404        182
  13.3590        236
  13.3776        216
  13.3962        208
  13.4147        207
  13.4333        182
  13.4519        217
  13.4705        192
  13.4890        215
  13.5076        202
  13.5262        222
  13.5448        183
  13.5634        194
  13.5819        203
  13.6005        195
  13.6191        170
  13.6377        211
  13.6562        181
  13.6748        198
  13.6934        198
  13.7120        190
  13.7305        167
  13.7491        186
  13.7677        215
  13.7863        178
  13.8048        208
  13.8234        213
  13.8420        186
  13.8606        170
  13.8791        178
  13.8977        183
  13.9163        193
  13.9349        188
  13.9534        195
  13.9720        169
  13.9906        176
  14.0092        178
  14.0277        187
  14.0463        188
  14.0649        196
  14.0835        200
  14.1020        177
  14.1206        197
  14.1392        179
  14.1578        198
  14.1763        190
  14.1949        182
  14.2135        161
  14.2321        195
  14.2506        206
  14.2692        180
  14.2878        188
  14.3064        190
  14.3250        168
  14.3435        187
  14.3621        168
  14.3807        182
  14.3993        183
  14.4178        177
  14.4364        184
  14.4550        182
  14.4736        185
  14.4921        180
  14.5107        156
  14.5293        183
  14.5479        170
  14.5664        198
  14.5850        174
  14.6036        178
  14.6222        159
  14.6407        170
  14.6593        161
  14.6779        170
  14.6965        174
  14.7150        200
  14.7336        171
  14.7522        183
  14.7708        161
  14.7893        163
  14.8079        183
  14.8265        168
  14.8451        172
  14.8636        171
  14.8822        162
  14.9008        171
  14.9194        160
  14.9379        181
  14.9565        166
  14.9751        150
  14.9937        173
  15.0122        163
  15.0308        149
  15.0494        156
  15.0680        168
  15.0866        171
  15.1051        185
  15.1237        182
  15.1423        169
  15.1609        200
  15.1794        173
  15.1980        196
  15.2166        156
  15.2352        173
  15.2537        162
  15.2723        182
  15.2909        173
  15.3095        183
  15.3280        186
  15.3466        178
  15.3652        158
  15.3838        168
  15.4023        161
  15.4209        164
  15.4395        172
  15.4581        172
  15.4766        178
  15.4952        159
  15.5138        139
  15.5324        142
  15.5509        201
  15.5695        181
  15.5881        190
  15.6067        171
  15.6252        173
  15.6438        178
  15.6624        192
  15.6810        161
  15.6995        162
  15.7181        177
  15.7367        167
  15.7553        205
  15.7738        174
  15.7924        171
  15.8110        199
  15.8296        173
  15.8482        163
  15.8667        188
  15.8853        163
  15.9039        173
  15.9225        187
  15.9410        178
  15.9596        164
  15.9782        167
  15.9968        147
  16.0153        171
  16.0339        163
  16.0525        178
  16.0711        141
  16.0896        160
  16.1082        168
  16.1268        129
  16.1454        160
  16.1639        159
  16.1825        158
  16.2011        162
  16.2197        165
  16.2382        180
  16.2568        160
  16.2754        157
  16.2940        174
  16.3125        171
  16.3311        144
  16.3497        156
  16.3683        191
  16.3868        155
  16.4054        164
  16.4240        157
  16.4426        156
  16.4611        171
  16.4797        178
  16.4983        150
  16.5169        192
  16.5354        174
  16.5540        165
  16.5726        141
  16.5912        170
  16.6097        175
  16.6283        174
  16.6469        143
  16.6655        181
  16.6841        153
  16.7026        147
  16.7212        158
  16.7398        180
  16.7584        171
  16.7769        173
  16.7955        159
  16.8141        158
  16.8327        173
  16.8512        156
  16.8698        185
  16.8884        169
  16.9070        177
  16.9255        146
  16.9441        166
  16.9627        155
  16.9813        190
  16.9998        190
  17.0184        182
  17.0370        166
  17.0556        162
  17.0741        149
  17.0927        157
  17.1113        166
  17.1299        160
  17.1484        182
  17.1670        151
  17.1856        154
  17.2042        145
  17.2227        158
  17.2413        147
  17.2599        173
  17.2785        178
  17.2970        159
  17.3156        172
  17.3342        156
  17.3528        164
  17.3713        177
  17.3899        193
  17.4085        161
  17.4271        192
  17.4457        188
  17.4642        151
  17.4828        133
  17.5014        155
  17.5200        141
  17.5385        161
  17.5571        148
  17.5757        187
  17.5943        151
  17.6128        172
  17.6314        176
  17.6500        156
  17.6686        148
  17.6871        167
  17.7057        199
  17.7243        137
  17.7429        153
  17.7614        176
  17.7800        169
  17.7986        155
  17.8172        167
  17.8357        179
  17.8543        172
  17.8729        196
  17.8915        131
  17.9100        175
  17.9286        174
  17.9472        174
  17.9658        169
  17.9843        159
  18.0029        173
  18.0215        179
  18.0401        136
  18.0586        150
  18.0772        171
  18.0958        180
  18.1144        144
  18.1329        163
  18.1515        179
  18.1701        146
  18.1887        151
  18.2073        153
  18.2258        170
  18.2444        170
  18.2630        162
  18.2816        145
  18.3001        169
  18.3187        165
  18.3373        173
  18.3559        173
  18.3744        161
  18.3930        146
  18.4116        156
  18.4302        168
  18.4487        188
  18.4673        136
  18.4859        160
  18.5045        169
  18.5230        172
  18.5416        172
  18.5602        182
  18.5788        170
  18.5973        180
  18.6159        172
  18.6345        176
  18.6531        164
  18.6716        177
  18.6902        151
  18.7088        148
  18.7274        161
  18.7459        159
  18.7645        173
  18.7831        170
  18.8017        170
  18.8202        179
  18.8388        181
  18.8574        190
  18.8760        172
  18.8945        171
  18.9131        183
  18.9317        179
  18.9503        179
  18.9689        169
  18.9874        157
  19.0060        164
  19.0246        168
  19.0432        185
  19.0617        182
  19.0803        176
  19.0989        182
  19.1175        173
  19.1360        164
  19.1546        188
  19.1732        168
  19.1918        193
  19.2103        176
  19.2289        181
  19.2475        180
  19.2661        196
  19.2846        195
  19.3032        159
  19.3218        179
  19.3404        173
  19.3589        165
  19.3775        173
  19.3961        169
  19.4147        178
  19.4332        172
  19.4518        182
  19.4704        203
  19.4890        172
  19.5075        171
  19.5261        177
  19.5447        172
  19.5633        183
  19.5818        183
  19.6004        163
  19.6190        165
  19.6376        164
  19.6561        145
  19.6747        179
  19.6933        166
  19.7119        193
  19.7305        181
  19.7490        190
  19.7676        183
  19.7862        200
  19.8048        186
  19.8233        203
  19.8419        171
  19.8605        176
  19.8791        180
  19.8976        193
  19.9162        175
  19.9348        177
  19.9534        197
  19.9719        166
  19.9905        194
  20.0091        171
  20.0277        181
  20.0462        183
  20.0648        201
  20.0834        191
  20.1020        186
  20.1205        182
  20.1391        202
  20.1577        172
  20.1763        186
  20.1948        191
  20.2134        208
  20.2320        183
  20.2506        203
  20.2691        190
  20.2877        192
  20.3063        202
  20.3249        170
  20.3434        186
  20.3620        185
  20.3806        178
  20.3992        186
  20.4177        197
  20.4363        193
  20.4549        180
  20.4735        187
  20.4921        187
  20.5106        176
  20.5292        183
  20.5478        165
  20.5664        204
  20.5849        202
  20.6035        192
  20.6221        182
  20.6407        201
  20.6592        185
  20.6778        177
  20.6964        210
  20.7150        197
  20.7335        204
  20.7521        189
  20.7707        177
  20.7893        195
  20.8078        192
  20.8264        198
  20.8450        196
  20.8636        212
  20.8821        183
  20.9007        188
  20.9193        199
  20.9379        200
  20.9564        183
  20.9750        192
  20.9936        204
  21.0122        191
  21.0307        188
  21.0493        196
  21.0679        210
  21.0865        205
  21.1050        193
  21.1236        219
  21.1422        237
  21.1608        248
  21.1793        264
  21.1979        282
  21.2165        310
  21.2351        324
  21.2537        344
  21.2722        324
  21.2908        339
  21.3094        326
  21.3280        391
  21.3465        507
  21.3651        512
  21.3837        422
  21.4023        396
  21.4208        340
  21.4394        272
  21.4580        231
  21.4766        199
  21.4951        205
  21.5137        185
  21.5323        209
  21.5509        213
  21.5694        224
  21.5880        208
  21.6066        208
  21.6252        191
  21.6437        209
  21.6623        203
  21.6809        208
  21.6995        209
  21.7180        194
  21.7366        202
  21.7552        185
  21.7738        186
  21.7923        225
  21.8109        173
  21.8295        182
  21.8481        195
  21.8666        193
  21.8852        183
  21.9038        194
  21.9224        181
  21.9409        179
  21.9595        199
  21.9781        170
  21.9967        195
  22.0152        195
  22.0338        175
  22.0524        196
  22.0710        190
  22.0896        201
  22.1081        208
  22.1267        187
  22.1453        204
  22.1639        206
  22.1824        192
  22.2010        203
  22.2196        184
  22.2382        188
  22.2567        196
  22.2753        202
  22.2939        188
  22.3125        201
  22.3310        217
  22.3496        173
  22.3682        205
  22.3868        210
  22.4053        202
  22.4239        201
  22.4425        187
  22.4611        189
  22.4796        180
  22.4982        186
  22.5168        192
  22.5354        207
  22.5539        188
  22.5725        184
  22.5911        194
  22.6097        206
  22.6282        182
  22.6468        177
  22.6654        192
  22.6840        192
  22.7025        196
  22.7211        195
  22.7397        209
  22.7583        204
  22.7768        206
  22.7954        196
  22.8140        226
  22.8326        183
  22.8512        201
  22.8697        203
  22.8883        209
  22.9069        210
  22.9255        168
  22.9440        217
  22.9626        214
  22.9812        192
  22.9998        182
  23.0183        207
  23.0369        193
  23.0555        217
  23.0741        209
  23.0926        194
  23.1112        202
  23.1298        198
  23.1484        220
  23.1669        210
  23.1855        184
  23.2041        189
  23.2227        200
  23.2412        213
  23.2598        211
  23.2784        182
  23.2970        193
  23.3155        186
  23.3341        207
  23.3527        197
  23.3713        202
  23.3898        186
  23.4084        191
  23.4270        203
  23.4456        194
  23.4641        178
  23.4827        199
  23.5013        212
  23.5199        227
  23.5384        183
  23.5570        190
  23.5756        200
  23.5942        195
  23.6128        212
  23.6313        226
  23.6499        206
  23.6685        185
  23.6871        201
  23.7056        198
  23.7242        229
  23.7428        195
  23.7614        233
  23.7799        190
  23.7985        200
  23.8171        200
  23.8357        197
  23.8542        204
  23.8728        182
  23.8914        186
  23.9100        188
  23.9285        195
  23.9471        225
  23.9657        201
  23.9843        224
  24.0028        191
  24.0214        232
  24.0400        219
  24.0586        221
  24.0771        219
  24.0957        197
  24.1143        209
  24.1329        217
  24.1514        210
  24.1700        224
  24.1886        207
  24.2072        175
  24.2257        207
  24.2443        221
  24.2629        230
  24.2815        229
  24.3000        259
  24.3186        235
  24.3372        216
  24.3558        225
  24.3744        187
  24.3929        204
  24.4115        227
  24.4301        230
  24.4487        213
  24.4672        217
  24.4858        239
  24.5044        199
  24.5230        209
  24.5415        212
  24.5601        189
  24.5787        213
  24.5973        193
  24.6158        222
  24.6344        178
  24.6530        197
  24.6716        194
  24.6901        207
  24.7087        190
  24.7273        181
  24.7459        196
  24.7644        218
  24.7830        223
  24.8016        203
  24.8202        214
  24.8387        214
  24.8573        188
  24.8759        208
  24.8945        210
  24.9130        219
  24.9316        225
  24.9502        204
  24.9688        213
  24.9873        183
  25.0059        198
  25.0245        179
  25.0431        185
  25.0616        216
  25.0802        188
  25.0988        199
  25.1174        239
  25.1360        201
  25.1545        222
  25.1731        202
  25.1917        224
  25.2103        192
  25.2288        188
  25.2474        198
  25.2660        174
  25.2846        223
  25.3031        244
  25.3217        165
  25.3403        168
  25.3589        204
  25.3774        206
  25.3960        200
  25.4146        200
  25.4332        182
  25.4517        202
  25.4703        186
  25.4889        178
  25.5075        200
  25.5260        193
  25.5446        199
  25.5632        207
  25.5818        204
  25.6003        217
  25.6189        206
  25.6375        201
  25.6561        199
  25.6746        183
  25.6932        194
  25.7118        239
  25.7304        212
  25.7489        223
  25.7675        180
  25.7861        199
  25.8047        223
  25.8232        170
  25.8418        209
  25.8604        202
  25.8790        203
  25.8976        206
  25.9161        203
  25.9347        211
  25.9533        208
  25.9719        168
  25.9904        189
  26.0090        220
  26.0276        185
  26.0462        190
  26.0647        202
  26.0833        199
  26.1019        200
  26.1205        191
  26.1390        184
  26.1576        204
  26.1762        198
  26.1948        203
  26.2133        199
  26.2319        198
  26.2505        189
  26.2691        202
  26.2876        186
  26.3062        183
  26.3248        190
  26.3434        174
  26.3619        190
  26.3805        178
  26.3991        203
  26.4177        182
  26.4362        184
  26.4548        168
  26.4734        205
  26.4920        173
  26.5105        185
  26.5291        182
  26.5477        191
  26.5663        190
  26.5848        188
  26.6034        175
  26.6220        193
  26.6406        178
  26.6591        195
  26.6777        202
  26.6963        180
  26.7149        195
  26.7335        190
  26.7520        200
  26.7706        192
  26.7892        210
  26.8078        198
  26.8263        213
  26.8449        195
  26.8635        202
  26.8821        203
  26.9006        170
  26.9192        183
  26.9378        199
  26.9564        185
  26.9749        185
  26.9935        210
  27.0121        167
  27.0307        177
  27.0492        192
  27.0678        187
  27.0864        189
  27.1050        207
  27.1235        220
  27.1421        200
  27.1607        219
  27.1793        246
  27.1978        249
  27.2164        237
  27.2350        253
  27.2536        240
  27.2721        227
  27.2907        225
  27.3093        218
  27.3279        189
  27.3464        203
  27.3650        183
  27.3836        221
  27.4022        190
  27.4207        183
  27.4393        194
  27.4579        198
  27.4765        187
  27.4951        184
  27.5136        172
  27.5322        199
  27.5508        175
  27.5694        200
  27.5879        187
  27.6065        168
  27.6251        179
  27.6437        200
  27.6622        177
  27.6808        173
  27.6994        165
  27.7180        201
  27.7365        189
  27.7551        142
  27.7737        186
  27.7923        169
  27.8108        170
  27.8294        189
  27.8480        182
  27.8666        198
  27.8851        186
  27.9037        159
  27.9223        183
  27.9409        156
  27.9594        168
  27.9780        177
  27.9966        188
  28.0152        176
  28.0337        178
  28.0523        161
  28.0709        170
  28.0895        186
  28.1080        164
  28.1266        137
  28.1452        166
  28.1638        179
  28.1823        174
  28.2009        174
  28.2195        147
  28.2381        187
  28.2567        162
  28.2752        166
  28.2938        155
  28.3124        174
  28.3310        159
  28.3495        146
  28.3681        170
  28.3867        174
  28.4053        177
  28.4238        166
  28.4424        149
  28.4610        170
  28.4796        174
  28.4981        182
  28.5167        175
  28.5353        182
  28.5539        155
  28.5724        190
  28.5910        155
  28.6096        163
  28.6282        179
  28.6467        172
  28.6653        171
  28.6839        176
  28.7025        195
  28.7210        167
  28.7396        165
  28.7582        156
  28.7768        163
  28.7953        178
  28.8139        161
  28.8325        144
  28.8511        159
  28.8696        159
  28.8882        165
  28.9068        181
  28.9254        163
  28.9439        188
  28.9625        182
  28.9811        182
  28.9997        164
  29.0183        135
  29.0368        187
  29.0554        184
  29.0740        189
  29.0926        167
  29.1111        169
  29.1297        155
  29.1483        186
  29.1669        151
  29.1854        157
  29.2040        159
  29.2226        154
  29.2412        161
  29.2597        170
  29.2783        183
  29.2969        155
  29.3155        161
  29.3340        156
  29.3526        160
  29.3712        174
  29.3898        137
  29.4083        153
  29.4269        163
  29.4455        167
  29.4641        166
  29.4826        143
  29.5012        144
  29.5198        172
  29.5384        170
  29.5569        138
  29.5755        158
  29.5941        144
  29.6127        154
  29.6312        169
  29.6498        166
  29.6684        147
  29.6870        158
  29.7055        171
  29.7241        132
  29.7427        148
  29.7613        173
  29.7799        171
  29.7984        169
  29.8170        168
  29.8356        173
  29.8542        179
  29.8727        179
  29.8913        172
  29.9099        173
  29.9285        158
  29.9470        161
  29.9656        172
  29.9842        159
  30.0028        152
  30.0213        177
  30.0399        137
  30.0585        166
  30.0771        167
  30.0956        157
  30.1142        149
  30.1328        173
  30.1514        185
  30.1699        159
  30.1885        162
  30.2071        162
  30.2257        133
  30.2442        162
  30.2628        144
  30.2814        169
  30.3000        184
  30.3185        192
  30.3371        224
  30.3557        235
  30.3743        347
  30.3928        330
  30.4114        274
  30.4300        235
  30.4486        234
  30.4671        247
  30.4857        218
  30.5043        186
  30.5229        181
  30.5415        143
  30.5600        148
  30.5786        153
  30.5972        188
  30.6158        161
  30.6343        138
  30.6529        176
  30.6715        177
  30.6901        157
  30.7086        159
  30.7272        159
  30.7458        153
  30.7644        142
  30.7829        144
  30.8015        131
  30.8201        153
  30.8387        160
  30.8572        149
  30.8758        161
  30.8944        136
  30.9130        133
  30.9315        137
  30.9501        148
  30.9687        154
  30.9873        159
  31.0058        141
  31.0244        153
  31.0430        145
  31.0616        140
  31.0801        154
  31.0987        149
  31.1173        166
  31.1359        133
  31.1544        127
  31.1730        148
  31.1916        141
  31.2102        135
  31.2287        151
  31.2473        140
  31.2659        145
  31.2845        131
  31.3030        128
  31.3216        140
  31.3402        150
  31.3588        134
  31.3774        149
  31.3959        135
  31.4145        134
  31.4331        132
  31.4517        139
  31.4702        147
  31.4888        129
  31.5074        147
  31.5260        145
  31.5445        141
  31.5631        131
  31.5817        132
  31.6003        112
  31.6188        132
  31.6374        161
  31.6560        155
  31.6746        117
  31.6931        141
  31.7117        140
  31.7303        149
  31.7489        135
  31.7674        140
  31.7860        131
  31.8046        143
  31.8232        156
  31.8417        130
  31.8603        143
  31.8789        133
  31.8975        140
  31.9160        134
  31.9346        129
  31.9532        141
  31.9718        149
  31.9903        125
  32.0089        132
  32.0275        130
  32.0461        146
  32.0646        146
  32.0832        119
  32.1018        116
  32.1204        137
  32.1390        142
  32.1575        145
  32.1761        152
  32.1947        138
  32.2133        135
  32.2318        130
  32.2504        135
  32.2690        130
  32.2876        135
  32.3061        140
  32.3247        142
  32.3433        133
  32.3619        141
  32.3804        130
  32.3990        159
  32.4176        148
  32.4362        140
  32.4547        147
  32.4733        154
  32.4919        155
  32.5105        158
  32.5290        151
  32.5476        144
  32.5662        168
  32.5848        136
  32.6033        123
  32.6219        140
  32.6405        133
  32.6591        126
  32.6776        140
  32.6962        142
  32.7148        134
  32.7334        100
  32.7519        132
  32.7705        135
  32.7891        118
  32.8077        122
  32.8262        159
  32.8448        125
  32.8634        130
  32.8820        111
  32.9006        128
  32.9191        130
  32.9377        129
  32.9563        141
  32.9749        128
  32.9934        133
  33.0120        132
  33.0306        118
  33.0492        119
  33.0677        123
  33.0863        127
  33.1049        129
  33.1235        112
  33.1420        121
  33.1606        128
  33.1792        143
  33.1978        120
  33.2163        117
  33.2349        141
  33.2535        128
  33.2721        143
  33.2906        117
  33.3092        137
  33.3278        124
  33.3464        133
  33.3649        115
  33.3835        126
  33.4021        131
  33.4207        116
  33.4392        144
  33.4578        102
  33.4764        140
  33.4950        137
  33.5135        115
  33.5321         96
  33.5507        117
  33.5693        128
  33.5878        128
  33.6064        137
  33.6250        117
  33.6436        104
  33.6622        119
  33.6807        146
  33.6993        119
  33.7179        120
  33.7365        113
  33.7550        148
  33.7736        111
  33.7922        109
  33.8108        137
  33.8293        107
  33.8479        114
  33.8665        124
  33.8851        142
  33.9036        122
  33.9222        109
  33.9408        127
  33.9594        117
  33.9779        134
  33.9965        114
  34.0151        100
  34.0337        121
  34.0522        126
  34.0708        119
  34.0894        116
  34.1080        119
  34.1265        123
  34.1451        113
  34.1637        118
  34.1823        101
  34.2008        105
  34.2194        103
  34.2380        120
  34.2566        141
  34.2751        114
  34.2937        142
  34.3123        113
  34.3309        105
  34.3494        135
  34.3680        126
  34.3866        115
  34.4052        109
  34.4238        132
  34.4423        125
  34.4609         98
  34.4795        130
  34.4981        109
  34.5166        113
  34.5352        124
  34.5538        116
  34.5724        137
  34.5909        135
  34.6095        116
  34.6281        117
  34.6467        122
  34.6652        139
  34.6838        129
  34.7024        126
  34.7210        146
  34.7395        128
  34.7581        177
  34.7767        154
  34.7953        134
  34.8138        129
  34.8324        143
  34.8510        141
  34.8696        134
  34.8881        127
  34.9067        135
  34.9253        113
  34.9439        121
  34.9624        129
  34.9810        123
  34.9996        122
  35.0182        104
  35.0367        115
  35.0553        133
  35.0739        115
  35.0925        111
  35.1110        117
  35.1296         99
  35.1482        109
  35.1668        104
  35.1854        100
  35.2039        105
  35.2225        102
  35.2411        111
  35.2597        109
  35.2782        103
  35.2968         99
  35.3154        105
  35.3340        119
  35.3525        109
  35.3711        112
  35.3897         99
  35.4083        108
  35.4268        108
  35.4454        110
  35.4640         91
  35.4826         99
  35.5011         97
  35.5197        122
  35.5383        111
  35.5569        100
  35.5754         99
  35.5940        114
  35.6126         97
  35.6312         96
  35.6497         98
  35.6683         90
  35.6869         92
  35.7055        106
  35.7240        115
  35.7426         81
  35.7612         85
  35.7798        105
  35.7983        105
  35.8169         89
  35.8355        104
  35.8541        106
  35.8726         95
  35.8912        105
  35.9098        106
  35.9284        111
  35.9469        110
  35.9655        104
  35.9841         94
  36.0027        115
  36.0213        115
  36.0398         92
  36.0584         89
  36.0770         87
  36.0956        112
  36.1141        100
  36.1327         94
  36.1513         98
  36.1699         98
  36.1884        106
  36.2070        106
  36.2256         90
  36.2442        105
  36.2627         92
  36.2813         90
  36.2999         97
  36.3185        104
  36.3370        107
  36.3556         87
  36.3742         99
  36.3928         99
  36.4113        116
  36.4299        102
  36.4485         99
  36.4671        109
  36.4856         87
  36.5042        101
  36.5228        105
  36.5414         90
  36.5599         87
  36.5785         84
  36.5971         98
  36.6157         94
  36.6342         99
  36.6528        101
  36.6714         93
  36.6900         99
  36.7085        117
  36.7271         87
  36.7457         95
  36.7643        103
  36.7829         99
  36.8014         85
  36.8200         99
  36.8386        126
  36.8572         97
  36.8757         84
  36.8943         81
  36.9129         82
  36.9315         87
  36.9500         95
  36.9686         95
  36.9872         96
  37.0058         85
  37.0243        113
  37.0429        106
  37.0615         96
  37.0801         74
  37.0986         95
  37.1172         76
  37.1358         80
  37.1544         81
  37.1729        115
  37.1915         82
  37.2101        106
  37.2287        104
  37.2472         86
  37.2658         89
  37.2844         94
  37.3030         85
  37.3215         77
  37.3401        104
  37.3587        103
  37.3773         88
  37.3958        122
  37.4144        113
  37.4330        151
  37.4516        167
  37.4701        143
  37.4887        117
  37.5073         96
  37.5259        135
  37.5445        124
  37.5630        132
  37.5816        101
  37.6002         80
  37.6188         81
  37.6373         84
  37.6559         92
  37.6745         84
  37.6931         84
  37.7116         89
  37.7302         87
  37.7488         91
  37.7674         88
  37.7859         79
  37.8045        100
  37.8231         93
  37.8417         91
  37.8602         98
  37.8788         78
  37.8974         69
  37.9160         90
  37.9345         94
  37.9531         90
  37.9717         83
  37.9903         93
  38.0088         77
  38.0274         87
  38.0460         77
  38.0646         77
  38.0831         91
  38.1017         83
  38.1203        102
  38.1389         75
  38.1574         86
  38.1760         91
  38.1946         89
  38.2132         91
  38.2317         75
  38.2503         85
  38.2689         78
  38.2875         70
  38.3061         72
  38.3246         75
  38.3432         82
  38.3618         75
  38.3804         67
  38.3989         95
  38.4175         85
  38.4361         87
  38.4547         71
  38.4732         95
  38.4918         80
  38.5104         83
  38.5290         90
  38.5475         76
  38.5661         86
  38.5847        103
  38.6033         95
  38.6218         99
  38.6404         83
  38.6590         60
  38.6776        101
  38.6961         90
  38.7147         82
  38.7333         67
  38.7519         87
  38.7704         89
  38.7890         84
  38.8076         77
  38.8262         91
  38.8447         79
  38.8633         96
  38.8819         99
  38.9005         88
  38.9190         88
  38.9376         90
  38.9562         92
  38.9748         76
  38.9933         99
  39.0119         91
  39.0305         84
  39.0491         90
  39.0677         90
  39.0862         78
  39.1048         77
  39.1234         83
  39.1420         84
  39.1605         70
  39.1791         88
  39.1977         91
  39.2163         85
  39.2348         71
  39.2534         87
  39.2720         88
  39.2906         62
  39.3091        101
  39.3277         70
  39.3463         93
  39.3649         87
  39.3834         84
  39.4020         96
  39.4206         77
  39.4392         90
  39.4577         78
  39.4763         82
  39.4949         75
  39.5135         75
  39.5320         80
  39.5506         81
  39.5692         75
  39.5878         87
  39.6063         72
  39.6249         86
  39.6435         72
  39.6621         73
  39.6806         85
  39.6992         65
  39.7178         70
  39.7364         85
  39.7549         81
  39.7735         77
  39.7921         79
  39.8107         91
  39.8293         71
  39.8478         83
  39.8664         79
  39.8850         88
  39.9036         56
  39.9221         89
  39.9407         76
  39.9593         80
  39.9779         83
  39.9964         91
  40.0150         69
  40.0336         70
  40.0522         71
  40.0707         90
  40.0893         65
  40.1079         80
  40.1265         87
  40.1450         71
  40.1636         70
  40.1822         76
  40.2008         68
  40.2193         72
  40.2379         88
  40.2565         62
  40.2751         91
  40.2936         89
  40.3122         76
  40.3308         69
  40.3494         70
  40.3679         78
  40.3865         66
  40.4051         83
  40.4237         94
  40.4422         69
  40.4608         87
  40.4794         79
  40.4980         92
  40.5165         75
  40.5351         83
  40.5537         78
  40.5723         76
  40.5908         83
  40.6094         71
  40.6280         83
  40.6466         93
  40.6652         85
  40.6837         91
  40.7023         86
  40.7209         76
  40.7395         85
  40.7580         90
  40.7766         88
  40.7952         83
  40.8138         82
  40.8323         82
  40.8509         82
  40.8695         72
  40.8881         70
  40.9066         70
  40.9252         77
  40.9438         76
  40.9624         73
  40.9809         88
  40.9995         78
  41.0181         82
  41.0367         89
  41.0552         71
  41.0738         81
  41.0924         72
  41.1110         81
  41.1295         83
  41.1481         75
  41.1667         76
  41.1853         85
  41.2038         85
  41.2224         71
  41.2410         91
  41.2596         66
  41.2781         80
  41.2967         74
  41.3153         73
  41.3339         83
  41.3524         74
  41.3710         72
  41.3896         72
  41.4082         71
  41.4268         71
  41.4453         68
  41.4639         67
  41.4825         76
  41.5011         84
  41.5196         59
  41.5382         73
  41.5568         73
  41.5754         75
  41.5939         85
  41.6125         89
  41.6311         74
  41.6497         69
  41.6682         72
  41.6868         77
  41.7054         69
  41.7240         72
  41.7425         84
  41.7611         80
  41.7797         72
  41.7983         81
  41.8168         82
  41.8354         82
  41.8540         70
  41.8726         75
  41.8911         57
  41.9097         79
  41.9283         76
  41.9469         61
  41.9654         74
  41.9840         71
  42.0026         72
  42.0212         90
  42.0397         72
  42.0583         88
  42.0769         81
  42.0955         79
  42.1140         78
  42.1326         62
  42.1512         69
  42.1698         74
  42.1884         79
  42.2069         93
  42.2255         69
  42.2441         81
  42.2627         83
  42.2812         93
  42.2998         67
  42.3184         64
  42.3370         76
  42.3555         77
  42.3741         59
  42.3927         72
  42.4113         90
  42.4298         72
  42.4484         61
  42.4670         73
  42.4856         70
  42.5041         81
  42.5227         68
  42.5413         62
  42.5599         75
  42.5784         86
  42.5970         68
  42.6156         78
  42.6342         81
  42.6527         68
  42.6713         78
  42.6899         74
  42.7085         73
  42.7270         71
  42.7456         68
  42.7642         66
  42.7828         72
  42.8013         73
  42.8199         46
  42.8385         63
  42.8571         73
  42.8756         56
  42.8942         72
  42.9128         81
  42.9314         68
  42.9500         99
  42.9685         75
  42.9871         65
  43.0057         97
  43.0243         69
  43.0428         64
  43.0614         78
  43.0800         79
  43.0986         64
  43.1171         80
  43.1357         68
  43.1543         74
  43.1729         79
  43.1914         82
  43.2100         94
  43.2286         80
  43.2472         82
  43.2657         77
  43.2843         68
  43.3029         77
  43.3215         74
  43.3400         83
  43.3586         89
  43.3772         83
  43.3958         88
  43.4143         77
  43.4329         77
  43.4515         90
  43.4701        102
  43.4886        111
  43.5072        121
  43.5258        149
  43.5444        103
  43.5629         77
  43.5815         88
  43.6001         97
  43.6187         94
  43.6372        104
  43.6558         97
  43.6744         81
  43.6930         68
  43.7116         83
  43.7301         74
  43.7487         73
  43.7673         91
  43.7859         88
  43.8044         67
  43.8230         84
  43.8416         78
  43.8602         84
  43.8787         81
  43.8973         84
  43.9159         60
  43.9345         93
  43.9530         65
  43.9716         60
  43.9902         82
  44.0088         86
  44.0273         70
  44.0459         76
  44.0645         71
  44.0831         68
  44.1016         60
  44.1202         69
  44.1388         83
  44.1574         78
  44.1759         71
  44.1945         76
  44.2131         77
  44.2317         71
  44.2502         71
  44.2688         74
  44.2874         73
  44.3060         85
  44.3245         77
  44.3431         72
  44.3617         75
  44.3803         67
  44.3988         73
  44.4174         80
  44.4360         83
  44.4546         61
  44.4732         74
  44.4917         67
  44.5103         73
  44.5289         81
  44.5475         86
  44.5660         87
  44.5846         77
  44.6032         79
  44.6218         79
  44.6403         81
  44.6589         73
  44.6775         80
  44.6961        103
  44.7146         86
  44.7332         78
  44.7518         76
  44.7704         74
  44.7889         69
  44.8075         92
  44.8261         75
  44.8447         74
  44.8632         67
  44.8818         72
  44.9004         86
  44.9190         73
  44.9375         67
  44.9561         72
  44.9747         70
  44.9933         76
  45.0118         67
  45.0304         88
  45.0490         66
  45.0676         75
  45.0861         69
  45.1047         61
  45.1233         69
  45.1419         69
  45.1604         73
  45.1790         67
  45.1976         73
  45.2162         76
  45.2347         81
  45.2533         74
  45.2719         66
  45.2905         58
  45.3091         70
  45.3276         59
  45.3462         63
  45.3648         79
  45.3834         74
  45.4019         76
  45.4205         59
  45.4391         80
  45.4577         63
  45.4762         61
  45.4948         65
  45.5134         82
  45.5320         83
  45.5505         72
  45.5691         63
  45.5877         68
  45.6063         68
  45.6248         62
  45.6434         70
  45.6620         79
  45.6806         68
  45.6991         62
  45.7177         68
  45.7363         54
  45.7549         57
  45.7734         75
  45.7920         57
  45.8106         73
  45.8292         72
  45.8477         56
  45.8663         68
  45.8849         81
  45.9035         70
  45.9220         57
  45.9406         61
  45.9592         51
  45.9778         71
  45.9963         53
  46.0149         68
  46.0335         65
  46.0521         62
  46.0707         71
  46.0892         61
  46.1078         64
  46.1264         72
  46.1450         67
  46.1635         68
  46.1821         73
  46.2007         84
  46.2193         75
  46.2378         82
  46.2564         64
  46.2750         71
  46.2936         70
  46.3121         62
  46.3307         69
  46.3493         63
  46.3679         71
  46.3864         58
  46.4050         59
  46.4236         53
  46.4422         59
  46.4607         59
  46.4793         66
  46.4979         59
  46.5165         78
  46.5350         79
  46.5536         73
  46.5722         60
  46.5908         62
  46.6093         61
  46.6279         68
  46.6465         70
  46.6651         68
  46.6836         82
  46.7022         69
  46.7208         78
  46.7394         75
  46.7579         63
  46.7765         59
  46.7951         65
  46.8137         68
  46.8323         66
  46.8508         73
  46.8694         57
  46.8880         63
  46.9066         71
  46.9251         72
  46.9437         60
  46.9623         51
  46.9809         74
  46.9994         59
  47.0180         54
  47.0366         70
  47.0552         67
  47.0737         67
  47.0923         62
  47.1109         66
  47.1295         67
  47.1480         61
  47.1666         54
  47.1852         47
  47.2038         52
  47.2223         73
  47.2409         70
  47.2595         65
  47.2781         69
  47.2966         64
  47.3152         67
  47.3338         66
  47.3524         65
  47.3709         52
  47.3895         65
  47.4081         55
  47.4267         54
  47.4452         70
  47.4638         61
  47.4824         58
  47.5010         64
  47.5195         64
  47.5381         65
  47.5567         82
  47.5753         52
  47.5939         64
  47.6124         60
  47.6310         60
  47.6496         72
  47.6682         81
  47.6867         87
  47.7053         63
  47.7239         71
  47.7425         42
  47.7610         69
  47.7796         67
  47.7982         61
  47.8168         74
  47.8353         42
  47.8539         66
  47.8725         63
  47.8911         72
  47.9096         70
  47.9282         79
  47.9468         59
  47.9654         68
  47.9839         62
  48.0025         48
  48.0211         69
  48.0397         66
  48.0582         70
  48.0768         70
  48.0954         65
  48.1140         46
  48.1325         76
  48.1511         47
  48.1697         60
  48.1883         74
  48.2068         58
  48.2254         63
  48.2440         58
  48.2626         79
  48.2811         73
  48.2997         62
  48.3183         60
  48.3369         70
  48.3555         71
  48.3740         74
  48.3926         60
  48.4112         57
  48.4298         56
  48.4483         54
  48.4669         64
  48.4855         70
  48.5041         80
  48.5226         86
  48.5412         73
  48.5598         65
  48.5784         59
  48.5969         53
  48.6155         57
  48.6341         65
  48.6527         66
  48.6712         65
  48.6898         58
  48.7084         75
  48.7270         62
  48.7455         79
  48.7641         70
  48.7827         63
  48.8013         60
  48.8198         74
  48.8384         70
  48.8570         60
  48.8756         94
  48.8941         65
  48.9127         74
  48.9313         84
  48.9499        122
  48.9684        146
  48.9870        101
  49.0056         92
  49.0242         82
  49.0427         86
  49.0613         87
  49.0799         95
  49.0985        103
  49.1171         90
  49.1356         91
  49.1542         80
  49.1728         62
  49.1914         65
  49.2099         75
  49.2285         72
  49.2471         54
  49.2657         59
  49.2842         60
  49.3028         62
  49.3214         54
  49.3400         76
  49.3585         52
  49.3771         60
  49.3957         64
  49.4143         58
  49.4328         65
  49.4514         60
  49.4700         72
  49.4886         55
  49.5071         59
  49.5257         78
  49.5443         70
  49.5629         68
  49.5814         56
  49.6000         56
  49.6186         70
  49.6372         60
  49.6557         63
  49.6743         75
  49.6929         68
  49.7115         70
  49.7300         68
  49.7486         59
  49.7672         67
  49.7858         63
  49.8043         65
  49.8229         72
  49.8415         70
  49.8601         54
  49.8786         63
  49.8972         56
  49.9158         59
  49.9344         53
  49.9530         63
  49.9715         63
  49.9901         67
  50.0087         64
  50.0273         57
  50.0458         69
  50.0644         65
  50.0830         58
  50.1016         53
  50.1201         55
  50.1387         57
  50.1573         68
  50.1759         70
  50.1944         74
  50.2130         86
  50.2316         65
  50.2502         65
  50.2687         65
  50.2873         71
  50.3059         56
  50.3245         64
  50.3430         56
  50.3616         61
  50.3802         67
  50.3988         63
  50.4173         70
  50.4359         63
  50.4545         55
  50.4731         59
  50.4916         43
  50.5102         59
  50.5288         63
  50.5474         53
  50.5659         57
  50.5845         60
  50.6031         58
  50.6217         62
  50.6402         63
  50.6588         66
  50.6774         73
  50.6960         55
  50.7146         62
  50.7331         63
  50.7517         52
  50.7703         64
  50.7889         59
  50.8074         60
  50.8260         58
  50.8446         68
  50.8632         59
  50.8817         62
  50.9003         57
  50.9189         54
  50.9375         49
  50.9560         61
  50.9746         64
  50.9932         65
  51.0118         51
  51.0303         55
  51.0489         72
  51.0675         60
  51.0861         59
  51.1046         55
  51.1232         72
  51.1418         61
  51.1604         75
  51.1789         63
  51.1975         64
  51.2161         73
  51.2347         61
  51.2532         71
  51.2718         69
  51.2904         59
  51.3090         69
  51.3275         72
  51.3461         84
  51.3647         64
  51.3833         76
  51.4018         74
  51.4204         58
  51.4390         71
  51.4576         75
  51.4762         61
  51.4947         62
  51.5133         70
  51.5319         60
  51.5505         66
  51.5690         53
  51.5876         60
  51.6062         69
  51.6248         64
  51.6433         73
  51.6619         66
  51.6805         60
  51.6991         53
  51.7176         60
  51.7362         50
  51.7548         73
  51.7734         56
  51.7919         71
  51.8105         68
  51.8291         57
  51.8477         71
  51.8662         66
  51.8848         68
  51.9034         80
  51.9220         69
  51.9405         57
  51.9591         72
  51.9777         56
  51.9963         67
  52.0148         70
  52.0334         49
  52.0520         57
  52.0706         61
  52.0891         55
  52.1077         49
  52.1263         48
  52.1449         77
  52.1634         65
  52.1820         44
  52.2006         61
  52.2192         69
  52.2378         52
  52.2563         60
  52.2749         62
  52.2935         62
  52.3121         54
  52.3306         60
  52.3492         60
  52.3678         60
  52.3864         49
  52.4049         55
  52.4235         56
  52.4421         52
  52.4607         65
  52.4792         62
  52.4978         60
  52.5164         62
  52.5350         72
  52.5535         53
  52.5721         57
  52.5907         39
  52.6093         61
  52.6278         53
  52.6464         71
  52.6650         50
  52.6836         73
  52.7021         56
  52.7207         53
  52.7393         53
  52.7579         51
  52.7764         67
  52.7950         59
  52.8136         68
  52.8322         51
  52.8507         59
  52.8693         60
  52.8879         62
  52.9065         54
  52.9250         69
  52.9436         70
  52.9622         64
  52.9808         64
  52.9994         56
  53.0179         74
  53.0365         69
  53.0551         67
  53.0737         69
  53.0922         51
  53.1108         54
  53.1294         78
  53.1480         63
  53.1665         68
  53.1851         65
  53.2037         68
  53.2223         44
  53.2408         62
  53.2594         56
  53.2780         54
  53.2966         57
  53.3151         59
  53.3337         52
  53.3523         69
  53.3709         73
  53.3894         58
  53.4080         68
  53.4266         51
  53.4452         52
  53.4637         77
  53.4823         67
  53.5009         52
  53.5195         54
  53.5380         66
  53.5566         58
  53.5752         55
  53.5938         54
  53.6123         62
  53.6309         61
  53.6495         68
  53.6681         60
  53.6866         69
  53.7052         59
  53.7238         47
  53.7424         55
  53.7610         61
  53.7795         53
  53.7981         61
  53.8167         57
  53.8353         81
  53.8538         61
  53.8724         53
  53.8910         60
  53.9096         69
  53.9281         69
  53.9467         56
  53.9653         70
  53.9839         89
  54.0024        105
  54.0210         95
  54.0396         83
  54.0582         67
  54.0767         58
  54.0953         67
  54.1139         68
  54.1325         68
  54.1510         72
  54.1696         62
  54.1882         69
  54.2068         67
  54.2253         59
  54.2439         63
  54.2625         59
  54.2811         63
  54.2996         52
  54.3182         53
  54.3368         56
  54.3554         54
  54.3739         60
  54.3925         68
  54.4111         62
  54.4297         62
  54.4482         47
  54.4668         47
  54.4854         57
  54.5040         60
  54.5225         51
  54.5411         55
  54.5597         57
  54.5783         68
  54.5969         48
  54.6154         54
  54.6340         63
  54.6526         66
  54.6712         57
  54.6897         59
  54.7083         62
  54.7269         66
  54.7455         41
  54.7640         57
  54.7826         68
  54.8012         63
  54.8198         54
  54.8383         54
  54.8569         51
  54.8755         49
  54.8941         69
  54.9126         67
  54.9312         67
  54.9498         54
  54.9684         56
  54.9869         50
  55.0055         53
  55.0241         55
  55.0427         67
  55.0612         62
  55.0798         39
  55.0984         58
  55.1170         61
  55.1355         63
  55.1541         60
  55.1727         54
  55.1913         57
  55.2098         58
  55.2284         58
  55.2470         59
  55.2656         43
  55.2841         57
  55.3027         59
  55.3213         74
  55.3399         49
  55.3585         71
  55.3770         42
  55.3956         63
  55.4142         57
  55.4328         53
  55.4513         45
  55.4699         51
  55.4885         60
  55.5071         60
  55.5256         46
  55.5442         62
  55.5628         57
  55.5814         56
  55.5999         42
  55.6185         67
  55.6371         59
  55.6557         49
  55.6742         51
  55.6928         46
  55.7114         59
  55.7300         48
  55.7485         49
  55.7671         56
  55.7857         61
  55.8043         59
  55.8228         53
  55.8414         66
  55.8600         65
  55.8786         68
  55.8971         49
  55.9157         67
  55.9343         74
  55.9529         60
  55.9714         53
  55.9900         51
  56.0086         57
  56.0272         63
  56.0457         52
  56.0643         50
  56.0829         64
  56.1015         47
  56.1201         60
  56.1386         42
  56.1572         54
  56.1758         53
  56.1944         57
  56.2129         51
  56.2315         59
  56.2501         69
  56.2687         59
  56.2872         61
  56.3058         63
  56.3244         64
  56.3430         69
  56.3615         56
  56.3801         59
  56.3987         68
  56.4173         64
  56.4358         64
  56.4544         60
  56.4730         55
  56.4916         60
  56.5101         60
  56.5287         54
  56.5473         49
  56.5659         53
  56.5844         68
  56.6030         52
  56.6216         59
  56.6402         43
  56.6587         57
  56.6773         65
  56.6959         56
  56.7145         42
  56.7330         63
  56.7516         49
  56.7702         59
  56.7888         64
  56.8073         63
  56.8259         62
  56.8445         56
  56.8631         63
  56.8817         52
  56.9002         61
  56.9188         55
  56.9374         46
  56.9560         62
  56.9745         51
  56.9931         70
  57.0117         55
  57.0303         66
  57.0488         58
  57.0674         53
  57.0860         50
  57.1046         47
  57.1231         45
  57.1417         47
  57.1603         60
  57.1789         72
  57.1974         51
  57.2160         53
  57.2346         52
  57.2532         54
  57.2717         62
  57.2903         59
  57.3089         64
  57.3275         47
  57.3460         45
  57.3646         58
  57.3832         45
  57.4018         50
  57.4203         59
  57.4389         51
  57.4575         56
  57.4761         51
  57.4946         59
  57.5132         68
  57.5318         52
  57.5504         61
  57.5689         55
  57.5875         55
  57.6061         63
  57.6247         61
  57.6433         50
  57.6618         71
  57.6804         69
  57.6990         67
  57.7176         64
  57.7361         65
  57.7547         73
  57.7733         78
  57.7919         64
  57.8104         51
  57.8290         56
  57.8476         52
  57.8662         61
  57.8847         52
  57.9033         62
  57.9219         55
  57.9405         46
  57.9590         75
  57.9776         48
  57.9962         68
  58.0148         53
  58.0333         49
  58.0519         47
  58.0705         60
  58.0891         54
  58.1076         59
  58.1262         64
  58.1448         67
  58.1634         68
  58.1819         62
  58.2005         55
  58.2191         64
  58.2377         54
  58.2562         53
  58.2748         60
  58.2934         59
  58.3120         67
  58.3305         51
  58.3491         58
  58.3677         45
  58.3863         62
  58.4049         58
  58.4234         60
  58.4420         56
  58.4606         61
  58.4792         48
  58.4977         47
  58.5163         67
  58.5349         36
  58.5535         50
  58.5720         52
  58.5906         50
  58.6092         55
  58.6278         64
  58.6463         47
  58.6649         52
  58.6835         54
  58.7021         63
  58.7206         60
  58.7392         70
  58.7578         67
  58.7764         50
  58.7949         54
  58.8135         41
  58.8321         51
  58.8507         54
  58.8692         48
  58.8878         62
  58.9064         58
  58.9250         61
  58.9435         64
  58.9621         65
  58.9807         61
  58.9993         48
  59.0178         55
  59.0364         53
  59.0550         49
  59.0736         59
  59.0921         49
  59.1107         67
  59.1293         51
  59.1479         54
  59.1664         59
  59.1850         63
  59.2036         63
  59.2222         63
  59.2408         45
  59.2593         50
  59.2779         51
  59.2965         66
  59.3151         70
  59.3336         63
  59.3522         50
  59.3708         60
  59.3894         53
  59.4079         57
  59.4265         50
  59.4451         54
  59.4637         48
  59.4822         58
  59.5008         50
  59.5194         50
  59.5380         52
  59.5565         50
  59.5751         54
  59.5937         68
  59.6123         60
  59.6308         66
  59.6494         59
  59.6680         49
  59.6866         52
  59.7051         50
  59.7237         55
  59.7423         49
  59.7609         59
  59.7794         56
  59.7980         44
  59.8166         52
  59.8352         48
  59.8537         54
  59.8723         54
  59.8909         44
  59.9095         53
  59.9280         64
  59.9466         53
  59.9652         63
  59.9838         49
  60.0024         52
