; (content of file Y:\Sam\Apurva-07-20-2022\puck1\ML_20220721_39_SJD_0_LaB6-4min.raw)
_FILEVERSION = 3
_SAMPLE = ML_20220721_39_SJD_0_LaB6-4min
_+SAMPLE = 
_SITE = USA
_USER = Administrator
_GONIOMETER_CODE = 20
; Goniometer : D8 theta/2theta, stage : Unknown
_ATTACHMENTS_CODE = 0
_GONIOMETER_RADIUS = 200.5
_FIXED_DIVSLIT = 0.6
_FIXED_SAMPLESLIT = 0
_SOLLER_SLITS = 2
_FIXED_DETSLIT = 9.55
_MONOCHROMATOR = 0
; Incident beam monochromator : None
_SOLLER_SLITS_2 = N
_THIN_FILM = N
_BETA_FILTER = Y
_FIXED_ANTISLIT = 5.89
_ANALYZER_CODE = 0
; Received beam analyzer : None
_DATEMEASURED = "25-Jul-2022 16:47:18"
_WL_UNIT = A
_WL1 = 1.5406
_WL2 = 1.54439
_WL3 = 1.39222
_WLRATIO = 0.5
_ANODE = Cu
_V4_INF_CREATOR = XRDWizard
_V4_INF_CREATOR_VERSION = V2.9.0.22
_V4_INF_WIZARD_VERSION = V2.9.0.22
_V4_INF_WIZARD_ADDINS = V2.9.0.22
_V4_INF_WIZARD_DOCTYPE = XRD
_V4_INF_OSUSER = McQueenLab
_V4_INF_USER = Administrator
_V4_INF_SITE = USA
_V4_INF_SAMPLEID = ML_20220721_39_SJD_0_LaB6-4min

; Data for range 1
_DRIVE = COUPLED
_STEPTIME = 11.28
_STEPSIZE = 0.0185756
_STEPMODE = C
_START = 5
_THETA = 2.5
_2THETA = 5
_KHI = 0
_PHI = 0
_X = 0
_Y = 0
_Z = 0
_DETECTOR = 5
; Detector type : Unknown
_DETECTORSLIT = unkn
_AUX1 = 0
_AUX2 = 0
_AUX3 = 0
_TIMESTARTED = 15
_TEMP_RATE = -1
_TEMP_DELAY = -1
_KV = 40
_MA = 40
_RANGE_WL = 1.5406
_3DPLANE = 0
_V4_ADDITIONALDETECTOR = 257
_V4_PSD2THETA = 3.3673
_V4_PSDCHANNEL1 = 0
_V4_PSDAPERTURE = 12.68
_V4_PSDTYPE = 5
_V4_PSDFIXED = 0
_V4_COUNTERS_MASK = 4096
_V4_DRIVES_MASK = 0
_V4_ENCODERS_MASK = 0
_2THETACOUNTS = 1
; 2THETA  PSD
   5.0000        248
   5.0186        257
   5.0372        253
   5.0557        242
   5.0743        251
   5.0929        270
   5.1115        285
   5.1300        256
   5.1486        239
   5.1672        240
   5.1858        268
   5.2043        265
   5.2229        235
   5.2415        238
   5.2601        242
   5.2786        239
   5.2972        219
   5.3158        247
   5.3344        255
   5.3529        251
   5.3715        220
   5.3901        265
   5.4087        235
   5.4272        251
   5.4458        230
   5.4644        238
   5.4830        237
   5.5015        210
   5.5201        221
   5.5387        239
   5.5573        217
   5.5758        238
   5.5944        223
   5.6130        234
   5.6316        239
   5.6501        221
   5.6687        187
   5.6873        236
   5.7059        213
   5.7244        225
   5.7430        214
   5.7616        231
   5.7802        238
   5.7988        211
   5.8173        214
   5.8359        216
   5.8545        207
   5.8731        213
   5.8916        201
   5.9102        185
   5.9288        206
   5.9474        225
   5.9659        192
   5.9845        220
   6.0031        234
   6.0217        182
   6.0402        212
   6.0588        192
   6.0774        178
   6.0960        171
   6.1145        214
   6.1331        208
   6.1517        188
   6.1703        219
   6.1888        184
   6.2074        171
   6.2260        187
   6.2446        186
   6.2631        203
   6.2817        181
   6.3003        181
   6.3189        172
   6.3374        165
   6.3560        174
   6.3746        190
   6.3932        177
   6.4117        177
   6.4303        185
   6.4489        197
   6.4675        196
   6.4860        177
   6.5046        183
   6.5232        165
   6.5418        166
   6.5604        166
   6.5789        182
   6.5975        160
   6.6161        174
   6.6347        187
   6.6532        181
   6.6718        185
   6.6904        181
   6.7090        170
   6.7275        187
   6.7461        177
   6.7647        165
   6.7833        191
   6.8018        182
   6.8204        171
   6.8390        155
   6.8576        179
   6.8761        181
   6.8947        178
   6.9133        158
   6.9319        155
   6.9504        160
   6.9690        182
   6.9876        173
   7.0062        174
   7.0247        162
   7.0433        159
   7.0619        176
   7.0805        174
   7.0990        169
   7.1176        167
   7.1362        187
   7.1548        169
   7.1733        136
   7.1919        133
   7.2105        162
   7.2291        156
   7.2476        138
   7.2662        171
   7.2848        136
   7.3034        141
   7.3220        175
   7.3405        144
   7.3591        164
   7.3777        149
   7.3963        149
   7.4148        172
   7.4334        176
   7.4520        160
   7.4706        183
   7.4891        142
   7.5077        173
   7.5263        198
   7.5449        164
   7.5634        167
   7.5820        190
   7.6006        176
   7.6192        177
   7.6377        163
   7.6563        179
   7.6749        180
   7.6935        168
   7.7120        185
   7.7306        180
   7.7492        186
   7.7678        184
   7.7863        178
   7.8049        183
   7.8235        180
   7.8421        198
   7.8606        170
   7.8792        200
   7.8978        178
   7.9164        203
   7.9349        205
   7.9535        183
   7.9721        187
   7.9907        202
   8.0092        195
   8.0278        178
   8.0464        188
   8.0650        204
   8.0835        197
   8.1021        201
   8.1207        191
   8.1393        211
   8.1579        177
   8.1764        231
   8.1950        195
   8.2136        203
   8.2322        194
   8.2507        196
   8.2693        180
   8.2879        202
   8.3065        176
   8.3250        186
   8.3436        188
   8.3622        191
   8.3808        205
   8.3993        186
   8.4179        209
   8.4365        176
   8.4551        202
   8.4736        190
   8.4922        203
   8.5108        195
   8.5294        228
   8.5479        204
   8.5665        229
   8.5851        196
   8.6037        207
   8.6222        198
   8.6408        208
   8.6594        209
   8.6780        212
   8.6965        226
   8.7151        221
   8.7337        208
   8.7523        193
   8.7708        215
   8.7894        177
   8.8080        201
   8.8266        241
   8.8451        210
   8.8637        214
   8.8823        220
   8.9009        188
   8.9195        208
   8.9380        216
   8.9566        214
   8.9752        227
   8.9938        195
   9.0123        209
   9.0309        211
   9.0495        203
   9.0681        202
   9.0866        213
   9.1052        215
   9.1238        204
   9.1424        214
   9.1609        243
   9.1795        200
   9.1981        235
   9.2167        229
   9.2352        215
   9.2538        186
   9.2724        215
   9.2910        226
   9.3095        210
   9.3281        227
   9.3467        220
   9.3653        222
   9.3838        218
   9.4024        207
   9.4210        218
   9.4396        231
   9.4581        208
   9.4767        246
   9.4953        226
   9.5139        251
   9.5324        207
   9.5510        213
   9.5696        218
   9.5882        230
   9.6067        198
   9.6253        237
   9.6439        244
   9.6625        242
   9.6811        223
   9.6996        244
   9.7182        213
   9.7368        248
   9.7554        236
   9.7739        246
   9.7925        212
   9.8111        218
   9.8297        233
   9.8482        226
   9.8668        250
   9.8854        286
   9.9040        226
   9.9225        280
   9.9411        218
   9.9597        250
   9.9783        255
   9.9968        243
  10.0154        218
  10.0340        239
  10.0526        263
  10.0711        222
  10.0897        229
  10.1083        231
  10.1269        253
  10.1454        247
  10.1640        212
  10.1826        245
  10.2012        229
  10.2197        260
  10.2383        245
  10.2569        260
  10.2755        247
  10.2940        235
  10.3126        229
  10.3312        234
  10.3498        242
  10.3683        239
  10.3869        241
  10.4055        275
  10.4241        247
  10.4427        247
  10.4612        256
  10.4798        245
  10.4984        234
  10.5170        264
  10.5355        229
  10.5541        249
  10.5727        233
  10.5913        256
  10.6098        259
  10.6284        236
  10.6470        245
  10.6656        290
  10.6841        232
  10.7027        244
  10.7213        203
  10.7399        255
  10.7584        269
  10.7770        237
  10.7956        231
  10.8142        264
  10.8327        219
  10.8513        241
  10.8699        286
  10.8885        251
  10.9070        269
  10.9256        270
  10.9442        247
  10.9628        245
  10.9813        247
  10.9999        219
  11.0185        228
  11.0371        228
  11.0556        243
  11.0742        215
  11.0928        212
  11.1114        264
  11.1299        254
  11.1485        240
  11.1671        240
  11.1857        258
  11.2043        272
  11.2228        228
  11.2414        260
  11.2600        246
  11.2786        257
  11.2971        224
  11.3157        242
  11.3343        256
  11.3529        250
  11.3714        239
  11.3900        226
  11.4086        222
  11.4272        235
  11.4457        248
  11.4643        269
  11.4829        246
  11.5015        262
  11.5200        208
  11.5386        246
  11.5572        195
  11.5758        265
  11.5943        237
  11.6129        230
  11.6315        236
  11.6501        232
  11.6686        230
  11.6872        217
  11.7058        234
  11.7244        223
  11.7429        251
  11.7615        243
  11.7801        235
  11.7987        238
  11.8172        205
  11.8358        227
  11.8544        216
  11.8730        226
  11.8915        215
  11.9101        235
  11.9287        241
  11.9473        249
  11.9659        259
  11.9844        242
  12.0030        227
  12.0216        228
  12.0402        232
  12.0587        219
  12.0773        254
  12.0959        233
  12.1145        231
  12.1330        220
  12.1516        245
  12.1702        227
  12.1888        231
  12.2073        205
  12.2259        227
  12.2445        205
  12.2631        215
  12.2816        213
  12.3002        219
  12.3188        233
  12.3374        235
  12.3559        239
  12.3745        238
  12.3931        221
  12.4117        238
  12.4302        205
  12.4488        214
  12.4674        219
  12.4860        181
  12.5045        237
  12.5231        209
  12.5417        210
  12.5603        201
  12.5788        235
  12.5974        220
  12.6160        217
  12.6346        209
  12.6531        214
  12.6717        215
  12.6903        215
  12.7089        230
  12.7274        254
  12.7460        235
  12.7646        198
  12.7832        226
  12.8018        231
  12.8203        232
  12.8389        217
  12.8575        199
  12.8761        206
  12.8946        199
  12.9132        215
  12.9318        211
  12.9504        202
  12.9689        228
  12.9875        215
  13.0061        209
  13.0247        198
  13.0432        212
  13.0618        213
  13.0804        210
  13.0990        229
  13.1175        214
  13.1361        231
  13.1547        198
  13.1733        221
  13.1918        229
  13.2104        190
  13.2290        195
  13.2476        220
  13.2661        194
  13.2847        223
  13.3033        197
  13.3219        194
  13.3404        215
  13.3590        198
  13.3776        193
  13.3962        184
  13.4147        198
  13.4333        172
  13.4519        192
  13.4705        199
  13.4890        191
  13.5076        216
  13.5262        179
  13.5448        200
  13.5634        179
  13.5819        207
  13.6005        208
  13.6191        188
  13.6377        201
  13.6562        201
  13.6748        191
  13.6934        205
  13.7120        188
  13.7305        181
  13.7491        189
  13.7677        176
  13.7863        185
  13.8048        173
  13.8234        179
  13.8420        205
  13.8606        203
  13.8791        186
  13.8977        205
  13.9163        184
  13.9349        201
  13.9534        187
  13.9720        172
  13.9906        190
  14.0092        196
  14.0277        198
  14.0463        155
  14.0649        169
  14.0835        218
  14.1020        171
  14.1206        163
  14.1392        172
  14.1578        183
  14.1763        196
  14.1949        173
  14.2135        174
  14.2321        144
  14.2506        185
  14.2692        174
  14.2878        191
  14.3064        174
  14.3250        166
  14.3435        178
  14.3621        188
  14.3807        195
  14.3993        162
  14.4178        204
  14.4364        174
  14.4550        174
  14.4736        186
  14.4921        188
  14.5107        177
  14.5293        184
  14.5479        169
  14.5664        155
  14.5850        157
  14.6036        170
  14.6222        166
  14.6407        162
  14.6593        156
  14.6779        161
  14.6965        169
  14.7150        171
  14.7336        169
  14.7522        166
  14.7708        189
  14.7893        171
  14.8079        160
  14.8265        167
  14.8451        171
  14.8636        177
  14.8822        156
  14.9008        173
  14.9194        176
  14.9379        170
  14.9565        175
  14.9751        185
  14.9937        186
  15.0122        172
  15.0308        169
  15.0494        159
  15.0680        173
  15.0866        158
  15.1051        163
  15.1237        177
  15.1423        189
  15.1609        156
  15.1794        146
  15.1980        159
  15.2166        159
  15.2352        167
  15.2537        164
  15.2723        158
  15.2909        157
  15.3095        156
  15.3280        151
  15.3466        154
  15.3652        191
  15.3838        153
  15.4023        170
  15.4209        178
  15.4395        178
  15.4581        178
  15.4766        157
  15.4952        165
  15.5138        152
  15.5324        160
  15.5509        159
  15.5695        142
  15.5881        151
  15.6067        166
  15.6252        160
  15.6438        181
  15.6624        173
  15.6810        159
  15.6995        151
  15.7181        186
  15.7367        139
  15.7553        153
  15.7738        146
  15.7924        169
  15.8110        159
  15.8296        149
  15.8482        164
  15.8667        170
  15.8853        168
  15.9039        166
  15.9225        187
  15.9410        174
  15.9596        156
  15.9782        171
  15.9968        179
  16.0153        159
  16.0339        161
  16.0525        159
  16.0711        171
  16.0896        189
  16.1082        154
  16.1268        155
  16.1454        166
  16.1639        152
  16.1825        162
  16.2011        166
  16.2197        150
  16.2382        171
  16.2568        172
  16.2754        154
  16.2940        168
  16.3125        160
  16.3311        171
  16.3497        183
  16.3683        187
  16.3868        162
  16.4054        180
  16.4240        155
  16.4426        156
  16.4611        153
  16.4797        183
  16.4983        148
  16.5169        174
  16.5354        144
  16.5540        171
  16.5726        178
  16.5912        160
  16.6097        189
  16.6283        178
  16.6469        154
  16.6655        164
  16.6841        158
  16.7026        150
  16.7212        182
  16.7398        147
  16.7584        168
  16.7769        168
  16.7955        145
  16.8141        158
  16.8327        145
  16.8512        158
  16.8698        161
  16.8884        154
  16.9070        167
  16.9255        171
  16.9441        161
  16.9627        174
  16.9813        174
  16.9998        151
  17.0184        136
  17.0370        177
  17.0556        159
  17.0741        131
  17.0927        180
  17.1113        151
  17.1299        158
  17.1484        196
  17.1670        143
  17.1856        152
  17.2042        142
  17.2227        149
  17.2413        151
  17.2599        171
  17.2785        144
  17.2970        153
  17.3156        144
  17.3342        151
  17.3528        162
  17.3713        171
  17.3899        166
  17.4085        156
  17.4271        144
  17.4457        176
  17.4642        158
  17.4828        149
  17.5014        125
  17.5200        153
  17.5385        150
  17.5571        176
  17.5757        162
  17.5943        150
  17.6128        156
  17.6314        156
  17.6500        187
  17.6686        175
  17.6871        170
  17.7057        166
  17.7243        203
  17.7429        161
  17.7614        158
  17.7800        151
  17.7986        148
  17.8172        183
  17.8357        152
  17.8543        183
  17.8729        174
  17.8915        157
  17.9100        151
  17.9286        172
  17.9472        176
  17.9658        170
  17.9843        163
  18.0029        155
  18.0215        137
  18.0401        167
  18.0586        147
  18.0772        172
  18.0958        171
  18.1144        186
  18.1329        168
  18.1515        159
  18.1701        171
  18.1887        152
  18.2073        167
  18.2258        162
  18.2444        178
  18.2630        176
  18.2816        155
  18.3001        156
  18.3187        161
  18.3373        161
  18.3559        188
  18.3744        175
  18.3930        173
  18.4116        158
  18.4302        167
  18.4487        175
  18.4673        171
  18.4859        165
  18.5045        156
  18.5230        165
  18.5416        178
  18.5602        172
  18.5788        178
  18.5973        173
  18.6159        179
  18.6345        181
  18.6531        172
  18.6716        186
  18.6902        155
  18.7088        167
  18.7274        158
  18.7459        161
  18.7645        184
  18.7831        171
  18.8017        170
  18.8202        190
  18.8388        166
  18.8574        178
  18.8760        164
  18.8945        173
  18.9131        150
  18.9317        156
  18.9503        172
  18.9689        173
  18.9874        157
  19.0060        175
  19.0246        170
  19.0432        167
  19.0617        195
  19.0803        168
  19.0989        166
  19.1175        180
  19.1360        174
  19.1546        172
  19.1732        166
  19.1918        191
  19.2103        196
  19.2289        170
  19.2475        178
  19.2661        169
  19.2846        180
  19.3032        164
  19.3218        163
  19.3404        147
  19.3589        161
  19.3775        173
  19.3961        176
  19.4147        160
  19.4332        149
  19.4518        151
  19.4704        168
  19.4890        187
  19.5075        185
  19.5261        183
  19.5447        182
  19.5633        184
  19.5818        179
  19.6004        178
  19.6190        150
  19.6376        172
  19.6561        169
  19.6747        178
  19.6933        189
  19.7119        185
  19.7305        184
  19.7490        167
  19.7676        169
  19.7862        201
  19.8048        181
  19.8233        184
  19.8419        196
  19.8605        156
  19.8791        187
  19.8976        168
  19.9162        195
  19.9348        213
  19.9534        163
  19.9719        181
  19.9905        178
  20.0091        156
  20.0277        192
  20.0462        168
  20.0648        157
  20.0834        153
  20.1020        176
  20.1205        190
  20.1391        179
  20.1577        193
  20.1763        174
  20.1948        169
  20.2134        181
  20.2320        188
  20.2506        166
  20.2691        166
  20.2877        191
  20.3063        194
  20.3249        182
  20.3434        194
  20.3620        186
  20.3806        180
  20.3992        180
  20.4177        174
  20.4363        159
  20.4549        202
  20.4735        179
  20.4921        190
  20.5106        175
  20.5292        191
  20.5478        199
  20.5664        175
  20.5849        222
  20.6035        184
  20.6221        194
  20.6407        200
  20.6592        189
  20.6778        203
  20.6964        184
  20.7150        198
  20.7335        204
  20.7521        203
  20.7707        180
  20.7893        193
  20.8078        194
  20.8264        198
  20.8450        180
  20.8636        189
  20.8821        198
  20.9007        185
  20.9193        193
  20.9379        213
  20.9564        168
  20.9750        203
  20.9936        160
  21.0122        176
  21.0307        185
  21.0493        197
  21.0679        172
  21.0865        194
  21.1050        210
  21.1236        220
  21.1422        193
  21.1608        224
  21.1793        262
  21.1979        296
  21.2165        354
  21.2351        346
  21.2537        313
  21.2722        289
  21.2908        316
  21.3094        313
  21.3280        366
  21.3465        543
  21.3651        565
  21.3837        418
  21.4023        372
  21.4208        322
  21.4394        297
  21.4580        240
  21.4766        226
  21.4951        204
  21.5137        205
  21.5323        194
  21.5509        211
  21.5694        170
  21.5880        173
  21.6066        182
  21.6252        236
  21.6437        206
  21.6623        194
  21.6809        220
  21.6995        200
  21.7180        203
  21.7366        190
  21.7552        200
  21.7738        198
  21.7923        184
  21.8109        224
  21.8295        194
  21.8481        201
  21.8666        199
  21.8852        171
  21.9038        186
  21.9224        200
  21.9409        193
  21.9595        200
  21.9781        203
  21.9967        188
  22.0152        189
  22.0338        202
  22.0524        187
  22.0710        175
  22.0896        186
  22.1081        203
  22.1267        198
  22.1453        172
  22.1639        206
  22.1824        216
  22.2010        178
  22.2196        182
  22.2382        181
  22.2567        191
  22.2753        187
  22.2939        206
  22.3125        223
  22.3310        188
  22.3496        182
  22.3682        197
  22.3868        218
  22.4053        201
  22.4239        203
  22.4425        211
  22.4611        197
  22.4796        202
  22.4982        192
  22.5168        219
  22.5354        212
  22.5539        186
  22.5725        196
  22.5911        191
  22.6097        204
  22.6282        188
  22.6468        197
  22.6654        195
  22.6840        186
  22.7025        200
  22.7211        177
  22.7397        191
  22.7583        197
  22.7768        187
  22.7954        179
  22.8140        209
  22.8326        204
  22.8512        190
  22.8697        229
  22.8883        189
  22.9069        215
  22.9255        207
  22.9440        209
  22.9626        184
  22.9812        226
  22.9998        182
  23.0183        196
  23.0369        182
  23.0555        207
  23.0741        202
  23.0926        194
  23.1112        215
  23.1298        192
  23.1484        200
  23.1669        220
  23.1855        186
  23.2041        175
  23.2227        206
  23.2412        206
  23.2598        215
  23.2784        215
  23.2970        209
  23.3155        187
  23.3341        206
  23.3527        201
  23.3713        217
  23.3898        210
  23.4084        236
  23.4270        203
  23.4456        217
  23.4641        195
  23.4827        205
  23.5013        211
  23.5199        208
  23.5384        213
  23.5570        210
  23.5756        215
  23.5942        190
  23.6128        213
  23.6313        221
  23.6499        194
  23.6685        203
  23.6871        170
  23.7056        200
  23.7242        191
  23.7428        198
  23.7614        241
  23.7799        194
  23.7985        206
  23.8171        209
  23.8357        180
  23.8542        207
  23.8728        211
  23.8914        209
  23.9100        185
  23.9285        209
  23.9471        187
  23.9657        221
  23.9843        226
  24.0028        211
  24.0214        222
  24.0400        198
  24.0586        205
  24.0771        214
  24.0957        210
  24.1143        215
  24.1329        196
  24.1514        233
  24.1700        212
  24.1886        193
  24.2072        205
  24.2257        206
  24.2443        224
  24.2629        235
  24.2815        244
  24.3000        241
  24.3186        208
  24.3372        206
  24.3558        241
  24.3744        225
  24.3929        188
  24.4115        195
  24.4301        227
  24.4487        181
  24.4672        191
  24.4858        188
  24.5044        181
  24.5230        203
  24.5415        186
  24.5601        203
  24.5787        196
  24.5973        204
  24.6158        186
  24.6344        230
  24.6530        204
  24.6716        189
  24.6901        206
  24.7087        190
  24.7273        204
  24.7459        197
  24.7644        217
  24.7830        206
  24.8016        203
  24.8202        204
  24.8387        208
  24.8573        199
  24.8759        205
  24.8945        201
  24.9130        200
  24.9316        218
  24.9502        186
  24.9688        225
  24.9873        194
  25.0059        166
  25.0245        204
  25.0431        201
  25.0616        167
  25.0802        204
  25.0988        198
  25.1174        200
  25.1360        220
  25.1545        206
  25.1731        210
  25.1917        183
  25.2103        206
  25.2288        199
  25.2474        207
  25.2660        192
  25.2846        204
  25.3031        184
  25.3217        204
  25.3403        209
  25.3589        201
  25.3774        215
  25.3960        187
  25.4146        206
  25.4332        192
  25.4517        203
  25.4703        187
  25.4889        206
  25.5075        193
  25.5260        226
  25.5446        204
  25.5632        201
  25.5818        208
  25.6003        184
  25.6189        196
  25.6375        205
  25.6561        207
  25.6746        194
  25.6932        187
  25.7118        209
  25.7304        187
  25.7489        179
  25.7675        206
  25.7861        191
  25.8047        178
  25.8232        192
  25.8418        187
  25.8604        178
  25.8790        196
  25.8976        176
  25.9161        196
  25.9347        171
  25.9533        217
  25.9719        199
  25.9904        201
  26.0090        197
  26.0276        193
  26.0462        186
  26.0647        183
  26.0833        203
  26.1019        217
  26.1205        208
  26.1390        181
  26.1576        213
  26.1762        189
  26.1948        190
  26.2133        176
  26.2319        179
  26.2505        186
  26.2691        179
  26.2876        214
  26.3062        185
  26.3248        202
  26.3434        206
  26.3619        176
  26.3805        177
  26.3991        188
  26.4177        173
  26.4362        185
  26.4548        212
  26.4734        200
  26.4920        216
  26.5105        181
  26.5291        193
  26.5477        194
  26.5663        206
  26.5848        183
  26.6034        171
  26.6220        182
  26.6406        195
  26.6591        196
  26.6777        181
  26.6963        171
  26.7149        193
  26.7335        188
  26.7520        190
  26.7706        169
  26.7892        192
  26.8078        179
  26.8263        174
  26.8449        193
  26.8635        167
  26.8821        185
  26.9006        192
  26.9192        205
  26.9378        195
  26.9564        202
  26.9749        186
  26.9935        222
  27.0121        198
  27.0307        178
  27.0492        174
  27.0678        193
  27.0864        194
  27.1050        174
  27.1235        181
  27.1421        205
  27.1607        223
  27.1793        238
  27.1978        261
  27.2164        233
  27.2350        237
  27.2536        218
  27.2721        236
  27.2907        234
  27.3093        185
  27.3279        217
  27.3464        189
  27.3650        196
  27.3836        172
  27.4022        170
  27.4207        175
  27.4393        169
  27.4579        215
  27.4765        217
  27.4951        192
  27.5136        194
  27.5322        173
  27.5508        181
  27.5694        186
  27.5879        170
  27.6065        192
  27.6251        187
  27.6437        157
  27.6622        188
  27.6808        163
  27.6994        190
  27.7180        170
  27.7365        198
  27.7551        179
  27.7737        171
  27.7923        177
  27.8108        165
  27.8294        169
  27.8480        148
  27.8666        205
  27.8851        162
  27.9037        154
  27.9223        195
  27.9409        190
  27.9594        184
  27.9780        190
  27.9966        192
  28.0152        181
  28.0337        173
  28.0523        161
  28.0709        170
  28.0895        186
  28.1080        189
  28.1266        191
  28.1452        158
  28.1638        174
  28.1823        174
  28.2009        180
  28.2195        206
  28.2381        186
  28.2567        172
  28.2752        182
  28.2938        166
  28.3124        173
  28.3310        181
  28.3495        176
  28.3681        178
  28.3867        164
  28.4053        175
  28.4238        185
  28.4424        159
  28.4610        167
  28.4796        166
  28.4981        155
  28.5167        171
  28.5353        159
  28.5539        151
  28.5724        183
  28.5910        175
  28.6096        164
  28.6282        175
  28.6467        164
  28.6653        182
  28.6839        153
  28.7025        174
  28.7210        158
  28.7396        177
  28.7582        192
  28.7768        184
  28.7953        158
  28.8139        162
  28.8325        166
  28.8511        174
  28.8696        174
  28.8882        184
  28.9068        155
  28.9254        192
  28.9439        180
  28.9625        152
  28.9811        147
  28.9997        163
  29.0183        161
  29.0368        168
  29.0554        152
  29.0740        171
  29.0926        152
  29.1111        170
  29.1297        169
  29.1483        152
  29.1669        158
  29.1854        157
  29.2040        161
  29.2226        158
  29.2412        147
  29.2597        162
  29.2783        174
  29.2969        145
  29.3155        152
  29.3340        167
  29.3526        156
  29.3712        196
  29.3898        167
  29.4083        158
  29.4269        157
  29.4455        154
  29.4641        160
  29.4826        180
  29.5012        143
  29.5198        173
  29.5384        166
  29.5569        166
  29.5755        174
  29.5941        168
  29.6127        153
  29.6312        160
  29.6498        145
  29.6684        145
  29.6870        129
  29.7055        143
  29.7241        156
  29.7427        160
  29.7613        171
  29.7799        171
  29.7984        178
  29.8170        151
  29.8356        162
  29.8542        174
  29.8727        143
  29.8913        164
  29.9099        149
  29.9285        143
  29.9470        155
  29.9656        145
  29.9842        164
  30.0028        160
  30.0213        148
  30.0399        165
  30.0585        157
  30.0771        154
  30.0956        180
  30.1142        152
  30.1328        151
  30.1514        156
  30.1699        161
  30.1885        162
  30.2071        135
  30.2257        160
  30.2442        146
  30.2628        165
  30.2814        158
  30.3000        175
  30.3185        164
  30.3371        212
  30.3557        238
  30.3743        350
  30.3928        320
  30.4114        279
  30.4300        227
  30.4486        267
  30.4671        266
  30.4857        203
  30.5043        165
  30.5229        158
  30.5415        145
  30.5600        173
  30.5786        169
  30.5972        153
  30.6158        177
  30.6343        147
  30.6529        155
  30.6715        156
  30.6901        153
  30.7086        168
  30.7272        135
  30.7458        137
  30.7644        137
  30.7829        144
  30.8015        121
  30.8201        155
  30.8387        147
  30.8572        137
  30.8758        149
  30.8944        159
  30.9130        144
  30.9315        148
  30.9501        131
  30.9687        150
  30.9873        111
  31.0058        168
  31.0244        135
  31.0430        150
  31.0616        138
  31.0801        139
  31.0987        144
  31.1173        157
  31.1359        142
  31.1544        161
  31.1730        147
  31.1916        118
  31.2102        124
  31.2287        138
  31.2473        144
  31.2659        138
  31.2845        149
  31.3030        138
  31.3216        139
  31.3402        170
  31.3588        159
  31.3774        120
  31.3959        145
  31.4145        140
  31.4331        151
  31.4517        137
  31.4702        144
  31.4888        139
  31.5074        136
  31.5260        138
  31.5445        145
  31.5631        127
  31.5817        143
  31.6003        142
  31.6188        144
  31.6374        156
  31.6560        164
  31.6746        165
  31.6931        148
  31.7117        138
  31.7303        133
  31.7489        133
  31.7674        137
  31.7860        121
  31.8046        142
  31.8232        126
  31.8417        137
  31.8603        159
  31.8789        144
  31.8975        134
  31.9160        101
  31.9346        145
  31.9532        132
  31.9718        150
  31.9903        140
  32.0089        140
  32.0275        165
  32.0461        118
  32.0646        143
  32.0832        140
  32.1018        127
  32.1204        122
  32.1390        113
  32.1575        114
  32.1761        118
  32.1947        145
  32.2133        134
  32.2318        143
  32.2504        145
  32.2690        122
  32.2876        161
  32.3061        142
  32.3247        137
  32.3433        144
  32.3619        137
  32.3804        137
  32.3990        155
  32.4176        156
  32.4362        126
  32.4547        151
  32.4733        155
  32.4919        155
  32.5105        132
  32.5290        142
  32.5476        166
  32.5662        162
  32.5848        154
  32.6033        149
  32.6219        129
  32.6405        133
  32.6591        128
  32.6776        142
  32.6962        135
  32.7148        133
  32.7334        118
  32.7519        131
  32.7705        136
  32.7891        127
  32.8077        128
  32.8262        108
  32.8448        137
  32.8634        130
  32.8820        122
  32.9006        130
  32.9191        145
  32.9377        122
  32.9563        124
  32.9749        109
  32.9934        119
  33.0120        114
  33.0306        124
  33.0492        110
  33.0677        113
  33.0863        134
  33.1049        130
  33.1235        103
  33.1420        134
  33.1606        106
  33.1792        121
  33.1978        123
  33.2163         92
  33.2349        126
  33.2535        122
  33.2721        111
  33.2906        118
  33.3092        142
  33.3278        119
  33.3464        133
  33.3649        120
  33.3835        103
  33.4021        126
  33.4207        112
  33.4392        106
  33.4578        106
  33.4764        128
  33.4950        120
  33.5135        105
  33.5321        101
  33.5507        126
  33.5693        131
  33.5878        122
  33.6064        123
  33.6250        117
  33.6436        126
  33.6622         99
  33.6807        101
  33.6993        114
  33.7179        120
  33.7365        130
  33.7550        102
  33.7736        135
  33.7922        116
  33.8108        112
  33.8293        112
  33.8479        113
  33.8665        107
  33.8851        110
  33.9036        117
  33.9222        110
  33.9408        117
  33.9594        111
  33.9779        106
  33.9965        103
  34.0151        133
  34.0337         98
  34.0522        111
  34.0708         98
  34.0894        113
  34.1080        114
  34.1265        125
  34.1451        106
  34.1637        107
  34.1823        111
  34.2008         99
  34.2194        110
  34.2380        115
  34.2566        119
  34.2751        110
  34.2937        106
  34.3123        124
  34.3309        127
  34.3494        102
  34.3680        129
  34.3866         96
  34.4052        120
  34.4238        130
  34.4423        122
  34.4609        111
  34.4795        120
  34.4981        110
  34.5166        112
  34.5352        131
  34.5538        113
  34.5724        117
  34.5909        131
  34.6095        118
  34.6281        138
  34.6467        154
  34.6652        133
  34.6838        149
  34.7024        147
  34.7210        149
  34.7395        172
  34.7581        158
  34.7767        162
  34.7953        142
  34.8138        157
  34.8324        143
  34.8510        158
  34.8696        128
  34.8881        129
  34.9067        114
  34.9253        124
  34.9439        113
  34.9624        117
  34.9810        123
  34.9996        140
  35.0182        115
  35.0367        100
  35.0553         97
  35.0739        103
  35.0925         98
  35.1110        103
  35.1296        120
  35.1482        113
  35.1668        105
  35.1854         90
  35.2039        105
  35.2225        108
  35.2411        104
  35.2597        101
  35.2782        116
  35.2968        106
  35.3154        102
  35.3340        122
  35.3525        115
  35.3711        107
  35.3897        103
  35.4083         93
  35.4268        101
  35.4454         99
  35.4640        121
  35.4826        102
  35.5011         93
  35.5197         92
  35.5383        106
  35.5569        101
  35.5754        100
  35.5940        104
  35.6126         87
  35.6312        105
  35.6497        101
  35.6683        112
  35.6869        105
  35.7055         94
  35.7240         96
  35.7426        105
  35.7612        100
  35.7798        110
  35.7983        114
  35.8169         73
  35.8355         77
  35.8541         87
  35.8726         92
  35.8912        104
  35.9098        112
  35.9284         85
  35.9469         82
  35.9655         97
  35.9841        101
  36.0027         96
  36.0213        119
  36.0398        111
  36.0584         96
  36.0770        101
  36.0956         95
  36.1141        118
  36.1327        106
  36.1513        113
  36.1699        103
  36.1884         83
  36.2070        114
  36.2256         90
  36.2442         93
  36.2627        102
  36.2813         95
  36.2999         92
  36.3185         95
  36.3370         88
  36.3556         99
  36.3742         85
  36.3928        101
  36.4113         95
  36.4299         89
  36.4485         99
  36.4671         92
  36.4856         89
  36.5042        112
  36.5228         88
  36.5414         96
  36.5599         83
  36.5785        108
  36.5971        115
  36.6157         88
  36.6342        109
  36.6528         99
  36.6714        106
  36.6900         89
  36.7085         93
  36.7271        104
  36.7457         86
  36.7643         88
  36.7829         96
  36.8014         80
  36.8200         84
  36.8386         82
  36.8572        108
  36.8757         89
  36.8943         91
  36.9129         87
  36.9315         89
  36.9500        112
  36.9686        101
  36.9872         84
  37.0058         85
  37.0243         91
  37.0429         90
  37.0615        116
  37.0801         86
  37.0986         92
  37.1172         93
  37.1358        107
  37.1544         93
  37.1729         87
  37.1915         88
  37.2101         69
  37.2287         84
  37.2472         76
  37.2658         96
  37.2844        113
  37.3030         99
  37.3215         87
  37.3401         92
  37.3587         96
  37.3773        107
  37.3958        111
  37.4144        125
  37.4330        138
  37.4516        156
  37.4701        131
  37.4887        121
  37.5073        131
  37.5259        140
  37.5445        136
  37.5630        108
  37.5816        106
  37.6002        111
  37.6188         77
  37.6373         92
  37.6559        118
  37.6745         90
  37.6931         87
  37.7116        101
  37.7302         92
  37.7488         95
  37.7674         83
  37.7859         96
  37.8045         81
  37.8231         87
  37.8417         90
  37.8602         84
  37.8788         99
  37.8974         93
  37.9160         94
  37.9345         89
  37.9531         82
  37.9717         96
  37.9903         70
  38.0088         74
  38.0274         97
  38.0460         84
  38.0646         93
  38.0831        103
  38.1017         94
  38.1203         88
  38.1389         79
  38.1574         89
  38.1760         83
  38.1946         92
  38.2132         99
  38.2317         95
  38.2503         94
  38.2689         91
  38.2875         95
  38.3061         74
  38.3246         90
  38.3432         87
  38.3618         75
  38.3804         80
  38.3989         72
  38.4175         86
  38.4361         81
  38.4547         76
  38.4732         85
  38.4918         60
  38.5104         72
  38.5290         77
  38.5475         88
  38.5661         80
  38.5847         68
  38.6033         92
  38.6218         72
  38.6404         89
  38.6590         80
  38.6776         77
  38.6961         78
  38.7147         73
  38.7333         82
  38.7519         83
  38.7704         88
  38.7890         75
  38.8076         73
  38.8262         69
  38.8447         81
  38.8633         88
  38.8819         89
  38.9005         86
  38.9190         87
  38.9376         89
  38.9562         88
  38.9748         68
  38.9933         84
  39.0119         80
  39.0305         93
  39.0491         84
  39.0677         73
  39.0862         84
  39.1048         75
  39.1234         74
  39.1420        107
  39.1605         89
  39.1791         82
  39.1977         75
  39.2163         73
  39.2348         93
  39.2534         80
  39.2720         85
  39.2906         81
  39.3091         65
  39.3277         88
  39.3463         74
  39.3649         72
  39.3834         70
  39.4020         80
  39.4206         78
  39.4392         95
  39.4577         81
  39.4763         74
  39.4949         86
  39.5135         68
  39.5320         68
  39.5506         83
  39.5692         70
  39.5878         77
  39.6063         83
  39.6249         81
  39.6435         68
  39.6621         65
  39.6806         96
  39.6992         86
  39.7178         86
  39.7364         74
  39.7549         75
  39.7735         83
  39.7921         86
  39.8107         87
  39.8293         69
  39.8478         82
  39.8664         82
  39.8850         78
  39.9036         98
  39.9221         61
  39.9407         75
  39.9593         77
  39.9779         75
  39.9964         73
  40.0150         78
  40.0336         69
  40.0522         75
  40.0707         78
  40.0893         76
  40.1079         70
  40.1265         85
  40.1450         83
  40.1636         61
  40.1822         68
  40.2008         75
  40.2193         71
  40.2379         76
  40.2565         92
  40.2751         81
  40.2936         62
  40.3122         74
  40.3308         96
  40.3494         74
  40.3679         87
  40.3865         69
  40.4051         80
  40.4237         78
  40.4422         64
  40.4608         64
  40.4794         85
  40.4980         71
  40.5165         96
  40.5351         82
  40.5537         79
  40.5723         80
  40.5908         85
  40.6094         64
  40.6280         74
  40.6466         74
  40.6652         90
  40.6837         85
  40.7023         73
  40.7209         79
  40.7395         73
  40.7580         83
  40.7766         74
  40.7952         74
  40.8138         94
  40.8323         88
  40.8509         84
  40.8695         78
  40.8881         85
  40.9066         79
  40.9252         72
  40.9438         76
  40.9624         96
  40.9809         83
  40.9995         99
  41.0181         78
  41.0367         80
  41.0552         70
  41.0738         66
  41.0924         68
  41.1110         85
  41.1295         80
  41.1481         89
  41.1667         67
  41.1853         82
  41.2038         77
  41.2224         66
  41.2410         96
  41.2596         62
  41.2781         72
  41.2967         83
  41.3153         77
  41.3339         68
  41.3524         74
  41.3710         81
  41.3896         81
  41.4082         63
  41.4268         67
  41.4453         77
  41.4639         65
  41.4825         64
  41.5011         75
  41.5196         74
  41.5382         80
  41.5568         78
  41.5754         76
  41.5939         83
  41.6125         77
  41.6311         66
  41.6497         90
  41.6682         73
  41.6868         76
  41.7054         79
  41.7240         82
  41.7425         65
  41.7611         79
  41.7797         65
  41.7983         53
  41.8168         74
  41.8354         70
  41.8540         71
  41.8726         74
  41.8911         89
  41.9097         80
  41.9283         74
  41.9469         73
  41.9654         84
  41.9840         83
  42.0026         73
  42.0212         65
  42.0397         96
  42.0583         83
  42.0769         78
  42.0955         93
  42.1140         83
  42.1326         86
  42.1512         68
  42.1698         78
  42.1884         67
  42.2069         90
  42.2255         89
  42.2441         73
  42.2627         81
  42.2812         83
  42.2998         74
  42.3184         71
  42.3370         66
  42.3555         66
  42.3741         61
  42.3927         82
  42.4113         66
  42.4298         70
  42.4484         73
  42.4670         77
  42.4856         66
  42.5041         61
  42.5227         80
  42.5413         99
  42.5599         80
  42.5784         70
  42.5970         69
  42.6156         77
  42.6342         63
  42.6527         70
  42.6713         83
  42.6899         74
  42.7085         75
  42.7270         77
  42.7456         59
  42.7642         73
  42.7828         74
  42.8013         75
  42.8199         67
  42.8385         74
  42.8571         76
  42.8756         86
  42.8942         71
  42.9128         77
  42.9314         84
  42.9500         75
  42.9685         84
  42.9871         91
  43.0057         85
  43.0243         90
  43.0428         85
  43.0614        100
  43.0800         74
  43.0986         76
  43.1171         66
  43.1357         93
  43.1543         82
  43.1729         72
  43.1914         86
  43.2100        100
  43.2286        103
  43.2472         87
  43.2657         86
  43.2843        100
  43.3029         65
  43.3215         75
  43.3400         95
  43.3586        105
  43.3772         83
  43.3958         86
  43.4143         86
  43.4329         84
  43.4515        101
  43.4701         91
  43.4886        126
  43.5072        136
  43.5258        131
  43.5444        115
  43.5629         89
  43.5815         93
  43.6001        111
  43.6187        122
  43.6372        100
  43.6558         87
  43.6744         75
  43.6930         77
  43.7116         81
  43.7301         78
  43.7487         65
  43.7673         78
  43.7859         78
  43.8044         67
  43.8230         62
  43.8416         68
  43.8602         62
  43.8787         67
  43.8973         67
  43.9159         76
  43.9345         76
  43.9530         85
  43.9716         69
  43.9902         88
  44.0088         77
  44.0273         66
  44.0459         68
  44.0645         83
  44.0831         50
  44.1016         72
  44.1202         85
  44.1388         70
  44.1574         75
  44.1759         67
  44.1945         77
  44.2131         74
  44.2317         69
  44.2502         76
  44.2688         58
  44.2874         79
  44.3060         86
  44.3245         78
  44.3431         67
  44.3617         82
  44.3803         83
  44.3988         76
  44.4174         75
  44.4360         69
  44.4546         71
  44.4732         91
  44.4917         75
  44.5103         80
  44.5289         56
  44.5475         90
  44.5660         80
  44.5846         62
  44.6032         80
  44.6218        104
  44.6403         92
  44.6589         77
  44.6775         85
  44.6961         71
  44.7146         72
  44.7332         75
  44.7518         80
  44.7704         80
  44.7889         86
  44.8075         84
  44.8261         78
  44.8447         72
  44.8632         73
  44.8818         71
  44.9004         70
  44.9190         75
  44.9375         73
  44.9561         61
  44.9747         70
  44.9933         63
  45.0118         65
  45.0304         78
  45.0490         71
  45.0676         69
  45.0861         56
  45.1047         66
  45.1233         54
  45.1419         70
  45.1604         78
  45.1790         72
  45.1976         76
  45.2162         78
  45.2347         55
  45.2533         69
  45.2719         68
  45.2905         86
  45.3091         70
  45.3276         76
  45.3462         69
  45.3648         49
  45.3834         69
  45.4019         59
  45.4205         70
  45.4391         68
  45.4577         54
  45.4762         67
  45.4948         70
  45.5134         63
  45.5320         61
  45.5505         61
  45.5691         59
  45.5877         73
  45.6063         66
  45.6248         66
  45.6434         53
  45.6620         59
  45.6806         54
  45.6991         75
  45.7177         88
  45.7363         71
  45.7549         55
  45.7734         86
  45.7920         78
  45.8106         63
  45.8292         66
  45.8477         60
  45.8663         83
  45.8849         69
  45.9035         76
  45.9220         66
  45.9406         59
  45.9592         69
  45.9778         67
  45.9963         65
  46.0149         51
  46.0335         71
  46.0521         66
  46.0707         66
  46.0892         52
  46.1078         57
  46.1264         68
  46.1450         80
  46.1635         53
  46.1821         62
  46.2007         75
  46.2193         71
  46.2378         52
  46.2564         50
  46.2750         70
  46.2936         83
  46.3121         72
  46.3307         71
  46.3493         73
  46.3679         71
  46.3864         71
  46.4050         58
  46.4236         63
  46.4422         69
  46.4607         76
  46.4793         76
  46.4979         70
  46.5165         68
  46.5350         57
  46.5536         70
  46.5722         71
  46.5908         75
  46.6093         68
  46.6279         56
  46.6465         71
  46.6651         65
  46.6836         57
  46.7022         65
  46.7208         76
  46.7394         67
  46.7579         66
  46.7765         60
  46.7951         65
  46.8137         75
  46.8323         70
  46.8508         65
  46.8694         65
  46.8880         61
  46.9066         69
  46.9251         75
  46.9437         82
  46.9623         78
  46.9809         76
  46.9994         66
  47.0180         76
  47.0366         54
  47.0552         65
  47.0737         62
  47.0923         69
  47.1109         56
  47.1295         65
  47.1480         61
  47.1666         60
  47.1852         77
  47.2038         46
  47.2223         66
  47.2409         66
  47.2595         71
  47.2781         73
  47.2966         63
  47.3152         61
  47.3338         65
  47.3524         68
  47.3709         72
  47.3895         72
  47.4081         65
  47.4267         57
  47.4452         67
  47.4638         65
  47.4824         61
  47.5010         76
  47.5195         60
  47.5381         51
  47.5567         78
  47.5753         64
  47.5939         62
  47.6124         60
  47.6310         60
  47.6496         70
  47.6682         67
  47.6867         59
  47.7053         64
  47.7239         66
  47.7425         69
  47.7610         48
  47.7796         52
  47.7982         68
  47.8168         57
  47.8353         54
  47.8539         66
  47.8725         69
  47.8911         46
  47.9096         54
  47.9282         54
  47.9468         69
  47.9654         43
  47.9839         65
  48.0025         62
  48.0211         54
  48.0397         65
  48.0582         66
  48.0768         55
  48.0954         59
  48.1140         76
  48.1325         70
  48.1511         51
  48.1697         65
  48.1883         72
  48.2068         63
  48.2254         56
  48.2440         71
  48.2626         69
  48.2811         72
  48.2997         69
  48.3183         51
  48.3369         50
  48.3555         80
  48.3740         74
  48.3926         66
  48.4112         61
  48.4298         68
  48.4483         68
  48.4669         66
  48.4855         55
  48.5041         51
  48.5226         68
  48.5412         65
  48.5598         50
  48.5784         62
  48.5969         61
  48.6155         64
  48.6341         65
  48.6527         49
  48.6712         67
  48.6898         69
  48.7084         73
  48.7270         61
  48.7455         66
  48.7641         65
  48.7827         68
  48.8013         68
  48.8198         73
  48.8384         63
  48.8570         61
  48.8756         55
  48.8941         88
  48.9127         76
  48.9313         97
  48.9499        110
  48.9684        100
  48.9870         99
  49.0056         86
  49.0242         75
  49.0427         93
  49.0613         86
  49.0799         99
  49.0985         93
  49.1171         93
  49.1356         74
  49.1542         73
  49.1728         71
  49.1914         80
  49.2099         59
  49.2285         70
  49.2471         80
  49.2657         63
  49.2842         59
  49.3028         46
  49.3214         59
  49.3400         61
  49.3585         54
  49.3771         61
  49.3957         63
  49.4143         54
  49.4328         75
  49.4514         68
  49.4700         64
  49.4886         62
  49.5071         58
  49.5257         64
  49.5443         53
  49.5629         75
  49.5814         62
  49.6000         74
  49.6186         55
  49.6372         74
  49.6557         64
  49.6743         71
  49.6929         59
  49.7115         62
  49.7300         54
  49.7486         43
  49.7672         50
  49.7858         62
  49.8043         58
  49.8229         63
  49.8415         55
  49.8601         71
  49.8786         64
  49.8972         72
  49.9158         64
  49.9344         60
  49.9530         62
  49.9715         55
  49.9901         55
  50.0087         60
  50.0273         69
  50.0458         55
  50.0644         53
  50.0830         73
  50.1016         55
  50.1201         62
  50.1387         66
  50.1573         63
  50.1759         63
  50.1944         80
  50.2130         75
  50.2316         70
  50.2502         58
  50.2687         72
  50.2873         64
  50.3059         55
  50.3245         75
  50.3430         60
  50.3616         44
  50.3802         67
  50.3988         58
  50.4173         63
  50.4359         49
  50.4545         58
  50.4731         55
  50.4916         54
  50.5102         55
  50.5288         64
  50.5474         68
  50.5659         46
  50.5845         52
  50.6031         56
  50.6217         49
  50.6402         63
  50.6588         68
  50.6774         62
  50.6960         69
  50.7146         67
  50.7331         53
  50.7517         58
  50.7703         64
  50.7889         68
  50.8074         73
  50.8260         84
  50.8446         60
  50.8632         67
  50.8817         49
  50.9003         62
  50.9189         59
  50.9375         75
  50.9560         63
  50.9746         65
  50.9932         63
  51.0118         62
  51.0303         45
  51.0489         56
  51.0675         56
  51.0861         59
  51.1046         57
  51.1232         54
  51.1418         63
  51.1604         61
  51.1789         55
  51.1975         59
  51.2161         71
  51.2347         42
  51.2532         61
  51.2718         64
  51.2904         63
  51.3090         66
  51.3275         62
  51.3461         60
  51.3647         79
  51.3833         60
  51.4018         79
  51.4204         65
  51.4390         73
  51.4576         66
  51.4762         61
  51.4947         76
  51.5133         77
  51.5319         73
  51.5505         58
  51.5690         67
  51.5876         59
  51.6062         60
  51.6248         69
  51.6433         72
  51.6619         65
  51.6805         63
  51.6991         65
  51.7176         68
  51.7362         63
  51.7548         51
  51.7734         65
  51.7919         61
  51.8105         59
  51.8291         68
  51.8477         69
  51.8662         66
  51.8848         68
  51.9034         72
  51.9220         72
  51.9405         59
  51.9591         68
  51.9777         59
  51.9963         64
  52.0148         57
  52.0334         63
  52.0520         74
  52.0706         49
  52.0891         60
  52.1077         54
  52.1263         60
  52.1449         55
  52.1634         56
  52.1820         78
  52.2006         56
  52.2192         56
  52.2378         69
  52.2563         58
  52.2749         54
  52.2935         54
  52.3121         62
  52.3306         61
  52.3492         57
  52.3678         61
  52.3864         58
  52.4049         62
  52.4235         65
  52.4421         46
  52.4607         61
  52.4792         52
  52.4978         58
  52.5164         52
  52.5350         53
  52.5535         55
  52.5721         58
  52.5907         63
  52.6093         53
  52.6278         67
  52.6464         58
  52.6650         43
  52.6836         62
  52.7021         46
  52.7207         52
  52.7393         59
  52.7579         53
  52.7764         56
  52.7950         55
  52.8136         57
  52.8322         65
  52.8507         55
  52.8693         47
  52.8879         51
  52.9065         55
  52.9250         55
  52.9436         64
  52.9622         59
  52.9808         63
  52.9994         66
  53.0179         86
  53.0365         78
  53.0551         55
  53.0737         55
  53.0922         48
  53.1108         53
  53.1294         59
  53.1480         69
  53.1665         58
  53.1851         65
  53.2037         60
  53.2223         54
  53.2408         55
  53.2594         66
  53.2780         63
  53.2966         46
  53.3151         65
  53.3337         56
  53.3523         74
  53.3709         67
  53.3894         63
  53.4080         54
  53.4266         72
  53.4452         71
  53.4637         53
  53.4823         65
  53.5009         59
  53.5195         58
  53.5380         61
  53.5566         49
  53.5752         59
  53.5938         57
  53.6123         62
  53.6309         55
  53.6495         56
  53.6681         61
  53.6866         57
  53.7052         54
  53.7238         65
  53.7424         60
  53.7610         64
  53.7795         65
  53.7981         58
  53.8167         71
  53.8353         67
  53.8538         47
  53.8724         61
  53.8910         61
  53.9096         64
  53.9281         58
  53.9467         63
  53.9653         85
  53.9839         84
  54.0024         91
  54.0210         63
  54.0396         68
  54.0582         61
  54.0767         75
  54.0953         56
  54.1139         68
  54.1325         74
  54.1510         89
  54.1696         66
  54.1882         64
  54.2068         71
  54.2253         60
  54.2439         67
  54.2625         57
  54.2811         58
  54.2996         50
  54.3182         54
  54.3368         52
  54.3554         46
  54.3739         59
  54.3925         64
  54.4111         44
  54.4297         54
  54.4482         51
  54.4668         41
  54.4854         57
  54.5040         59
  54.5225         75
  54.5411         60
  54.5597         55
  54.5783         55
  54.5969         55
  54.6154         74
  54.6340         56
  54.6526         56
  54.6712         55
  54.6897         59
  54.7083         52
  54.7269         54
  54.7455         62
  54.7640         55
  54.7826         56
  54.8012         62
  54.8198         38
  54.8383         55
  54.8569         50
  54.8755         57
  54.8941         64
  54.9126         66
  54.9312         55
  54.9498         73
  54.9684         60
  54.9869         60
  55.0055         56
  55.0241         59
  55.0427         49
  55.0612         58
  55.0798         65
  55.0984         54
  55.1170         62
  55.1355         67
  55.1541         45
  55.1727         62
  55.1913         57
  55.2098         60
  55.2284         50
  55.2470         46
  55.2656         50
  55.2841         61
  55.3027         50
  55.3213         49
  55.3399         50
  55.3585         41
  55.3770         50
  55.3956         50
  55.4142         55
  55.4328         49
  55.4513         56
  55.4699         47
  55.4885         49
  55.5071         55
  55.5256         55
  55.5442         55
  55.5628         49
  55.5814         59
  55.5999         56
  55.6185         66
  55.6371         49
  55.6557         59
  55.6742         54
  55.6928         54
  55.7114         65
  55.7300         52
  55.7485         61
  55.7671         46
  55.7857         59
  55.8043         64
  55.8228         57
  55.8414         61
  55.8600         49
  55.8786         61
  55.8971         50
  55.9157         61
  55.9343         52
  55.9529         56
  55.9714         45
  55.9900         57
  56.0086         55
  56.0272         52
  56.0457         52
  56.0643         66
  56.0829         73
  56.1015         60
  56.1201         64
  56.1386         64
  56.1572         43
  56.1758         58
  56.1944         78
  56.2129         59
  56.2315         88
  56.2501         58
  56.2687         77
  56.2872         68
  56.3058         73
  56.3244         55
  56.3430         60
  56.3615         63
  56.3801         59
  56.3987         62
  56.4173         61
  56.4358         65
  56.4544         65
  56.4730         46
  56.4916         54
  56.5101         58
  56.5287         61
  56.5473         69
  56.5659         58
  56.5844         58
  56.6030         69
  56.6216         59
  56.6402         46
  56.6587         61
  56.6773         54
  56.6959         47
  56.7145         53
  56.7330         57
  56.7516         49
  56.7702         58
  56.7888         42
  56.8073         56
  56.8259         53
  56.8445         58
  56.8631         75
  56.8817         43
  56.9002         50
  56.9188         54
  56.9374         71
  56.9560         59
  56.9745         66
  56.9931         43
  57.0117         58
  57.0303         57
  57.0488         58
  57.0674         54
  57.0860         65
  57.1046         57
  57.1231         58
  57.1417         51
  57.1603         52
  57.1789         55
  57.1974         56
  57.2160         51
  57.2346         46
  57.2532         52
  57.2717         63
  57.2903         62
  57.3089         53
  57.3275         53
  57.3460         42
  57.3646         48
  57.3832         64
  57.4018         60
  57.4203         61
  57.4389         50
  57.4575         48
  57.4761         57
  57.4946         52
  57.5132         55
  57.5318         64
  57.5504         55
  57.5689         53
  57.5875         56
  57.6061         51
  57.6247         66
  57.6433         55
  57.6618         50
  57.6804         77
  57.6990         62
  57.7176         58
  57.7361         58
  57.7547         60
  57.7733         63
  57.7919         61
  57.8104         55
  57.8290         66
  57.8476         55
  57.8662         53
  57.8847         55
  57.9033         66
  57.9219         54
  57.9405         57
  57.9590         49
  57.9776         55
  57.9962         59
  58.0148         54
  58.0333         46
  58.0519         56
  58.0705         55
  58.0891         59
  58.1076         58
  58.1262         46
  58.1448         55
  58.1634         64
  58.1819         64
  58.2005         52
  58.2191         59
  58.2377         63
  58.2562         48
  58.2748         55
  58.2934         42
  58.3120         47
  58.3305         56
  58.3491         53
  58.3677         58
  58.3863         49
  58.4049         58
  58.4234         60
  58.4420         45
  58.4606         68
  58.4792         63
  58.4977         61
  58.5163         61
  58.5349         58
  58.5535         59
  58.5720         66
  58.5906         61
  58.6092         51
  58.6278         53
  58.6463         57
  58.6649         39
  58.6835         65
  58.7021         54
  58.7206         56
  58.7392         52
  58.7578         66
  58.7764         61
  58.7949         53
  58.8135         61
  58.8321         57
  58.8507         61
  58.8692         50
  58.8878         46
  58.9064         48
  58.9250         69
  58.9435         64
  58.9621         56
  58.9807         69
  58.9993         40
  59.0178         62
  59.0364         50
  59.0550         63
  59.0736         48
  59.0921         49
  59.1107         59
  59.1293         61
  59.1479         47
  59.1664         59
  59.1850         50
  59.2036         59
  59.2222         58
  59.2408         35
  59.2593         48
  59.2779         50
  59.2965         60
  59.3151         71
  59.3336         57
  59.3522         52
  59.3708         52
  59.3894         55
  59.4079         55
  59.4265         50
  59.4451         57
  59.4637         55
  59.4822         68
  59.5008         46
  59.5194         54
  59.5380         63
  59.5565         70
  59.5751         61
  59.5937         68
  59.6123         44
  59.6308         55
  59.6494         64
  59.6680         53
  59.6866         57
  59.7051         72
  59.7237         61
  59.7423         70
  59.7609         47
  59.7794         64
  59.7980         67
  59.8166         44
  59.8352         65
  59.8537         61
  59.8723         51
  59.8909         45
  59.9095         49
  59.9280         58
  59.9466         54
  59.9652         53
  59.9838         51
  60.0024         55
