; (content of file Y:\Sam\Apurva-07-20-2022\puck4\ML_20220718_47_SJD_4_LaB6-4min.raw)
_FILEVERSION = 3
_SAMPLE = ML_20220718_47_SJD_4_LaB6-4min
_+SAMPLE = 
_SITE = USA
_USER = Administrator
_GONIOMETER_CODE = 20
; Goniometer : D8 theta/2theta, stage : Unknown
_ATTACHMENTS_CODE = 0
_GONIOMETER_RADIUS = 200.5
_FIXED_DIVSLIT = 0.6
_FIXED_SAMPLESLIT = 0
_SOLLER_SLITS = 2
_FIXED_DETSLIT = 9.55
_MONOCHROMATOR = 0
; Incident beam monochromator : None
_SOLLER_SLITS_2 = N
_THIN_FILM = N
_BETA_FILTER = Y
_FIXED_ANTISLIT = 5.89
_ANALYZER_CODE = 0
; Received beam analyzer : None
_DATEMEASURED = "26-Jul-2022 13:47:21"
_WL_UNIT = A
_WL1 = 1.5406
_WL2 = 1.54439
_WL3 = 1.39222
_WLRATIO = 0.5
_ANODE = Cu
_V4_INF_CREATOR = XRDWizard
_V4_INF_CREATOR_VERSION = V2.9.0.22
_V4_INF_WIZARD_VERSION = V2.9.0.22
_V4_INF_WIZARD_ADDINS = V2.9.0.22
_V4_INF_WIZARD_DOCTYPE = XRD
_V4_INF_OSUSER = McQueenLab
_V4_INF_USER = Administrator
_V4_INF_SITE = USA
_V4_INF_SAMPLEID = ML_20220718_47_SJD_4_LaB6-4min

; Data for range 1
_DRIVE = COUPLED
_STEPTIME = 11.28
_STEPSIZE = 0.0185756
_STEPMODE = C
_START = 5
_THETA = 2.5
_2THETA = 5
_KHI = 0
_PHI = 0
_X = 0
_Y = 0
_Z = 0
_DETECTOR = 5
; Detector type : Unknown
_DETECTORSLIT = unkn
_AUX1 = 0
_AUX2 = 0
_AUX3 = 0
_TIMESTARTED = 15
_TEMP_RATE = -1
_TEMP_DELAY = -1
_KV = 40
_MA = 40
_RANGE_WL = 1.5406
_3DPLANE = 0
_V4_ADDITIONALDETECTOR = 257
_V4_PSD2THETA = 3.3662
_V4_PSDCHANNEL1 = 0
_V4_PSDAPERTURE = 12.68
_V4_PSDTYPE = 5
_V4_PSDFIXED = 0
_V4_COUNTERS_MASK = 4096
_V4_DRIVES_MASK = 0
_V4_ENCODERS_MASK = 0
_2THETACOUNTS = 1
; 2THETA  PSD
   5.0000        252
   5.0186        250
   5.0372        232
   5.0557        255
   5.0743        275
   5.0929        254
   5.1115        250
   5.1300        276
   5.1486        264
   5.1672        285
   5.1858        224
   5.2043        261
   5.2229        258
   5.2415        218
   5.2601        263
   5.2786        248
   5.2972        239
   5.3158        257
   5.3344        251
   5.3529        221
   5.3715        241
   5.3901        249
   5.4087        245
   5.4272        207
   5.4458        234
   5.4644        230
   5.4830        206
   5.5015        229
   5.5201        213
   5.5387        229
   5.5573        214
   5.5758        253
   5.5944        232
   5.6130        238
   5.6316        202
   5.6501        219
   5.6687        203
   5.6873        219
   5.7059        218
   5.7244        201
   5.7430        216
   5.7616        223
   5.7802        215
   5.7988        238
   5.8173        193
   5.8359        180
   5.8545        218
   5.8731        186
   5.8916        183
   5.9102        219
   5.9288        215
   5.9474        178
   5.9659        208
   5.9845        197
   6.0031        183
   6.0217        196
   6.0402        189
   6.0588        193
   6.0774        176
   6.0960        184
   6.1145        205
   6.1331        191
   6.1517        208
   6.1703        177
   6.1888        194
   6.2074        165
   6.2260        167
   6.2446        171
   6.2631        195
   6.2817        184
   6.3003        191
   6.3189        197
   6.3374        158
   6.3560        192
   6.3746        153
   6.3932        157
   6.4117        187
   6.4303        174
   6.4489        178
   6.4675        192
   6.4860        185
   6.5046        172
   6.5232        184
   6.5418        178
   6.5604        177
   6.5789        156
   6.5975        158
   6.6161        176
   6.6347        168
   6.6532        186
   6.6718        174
   6.6904        179
   6.7090        181
   6.7275        184
   6.7461        164
   6.7647        159
   6.7833        165
   6.8018        175
   6.8204        167
   6.8390        178
   6.8576        183
   6.8761        191
   6.8947        163
   6.9133        153
   6.9319        159
   6.9504        173
   6.9690        167
   6.9876        165
   7.0062        156
   7.0247        146
   7.0433        154
   7.0619        164
   7.0805        164
   7.0990        150
   7.1176        160
   7.1362        169
   7.1548        158
   7.1733        154
   7.1919        178
   7.2105        151
   7.2291        159
   7.2476        168
   7.2662        169
   7.2848        160
   7.3034        162
   7.3220        146
   7.3405        148
   7.3591        181
   7.3777        164
   7.3963        175
   7.4148        148
   7.4334        160
   7.4520        154
   7.4706        147
   7.4891        172
   7.5077        146
   7.5263        167
   7.5449        158
   7.5634        174
   7.5820        165
   7.6006        168
   7.6192        157
   7.6377        171
   7.6563        196
   7.6749        174
   7.6935        195
   7.7120        170
   7.7306        193
   7.7492        204
   7.7678        201
   7.7863        179
   7.8049        177
   7.8235        174
   7.8421        200
   7.8606        192
   7.8792        206
   7.8978        179
   7.9164        185
   7.9349        173
   7.9535        178
   7.9721        183
   7.9907        182
   8.0092        180
   8.0278        222
   8.0464        182
   8.0650        179
   8.0835        195
   8.1021        193
   8.1207        198
   8.1393        208
   8.1579        209
   8.1764        189
   8.1950        178
   8.2136        205
   8.2322        196
   8.2507        205
   8.2693        201
   8.2879        193
   8.3065        166
   8.3250        180
   8.3436        219
   8.3622        184
   8.3808        232
   8.3993        224
   8.4179        188
   8.4365        201
   8.4551        193
   8.4736        170
   8.4922        194
   8.5108        191
   8.5294        207
   8.5479        171
   8.5665        184
   8.5851        213
   8.6037        192
   8.6222        202
   8.6408        216
   8.6594        220
   8.6780        195
   8.6965        229
   8.7151        219
   8.7337        206
   8.7523        200
   8.7708        237
   8.7894        197
   8.8080        233
   8.8266        203
   8.8451        195
   8.8637        212
   8.8823        202
   8.9009        212
   8.9195        222
   8.9380        231
   8.9566        202
   8.9752        228
   8.9938        208
   9.0123        201
   9.0309        209
   9.0495        206
   9.0681        223
   9.0866        247
   9.1052        219
   9.1238        214
   9.1424        196
   9.1609        220
   9.1795        241
   9.1981        220
   9.2167        217
   9.2352        209
   9.2538        224
   9.2724        216
   9.2910        217
   9.3095        215
   9.3281        214
   9.3467        209
   9.3653        217
   9.3838        240
   9.4024        221
   9.4210        228
   9.4396        244
   9.4581        219
   9.4767        200
   9.4953        211
   9.5139        213
   9.5324        205
   9.5510        230
   9.5696        249
   9.5882        221
   9.6067        216
   9.6253        225
   9.6439        243
   9.6625        213
   9.6811        222
   9.6996        201
   9.7182        225
   9.7368        252
   9.7554        227
   9.7739        214
   9.7925        206
   9.8111        249
   9.8297        232
   9.8482        245
   9.8668        232
   9.8854        242
   9.9040        268
   9.9225        255
   9.9411        245
   9.9597        234
   9.9783        234
   9.9968        263
  10.0154        199
  10.0340        220
  10.0526        224
  10.0711        228
  10.0897        234
  10.1083        244
  10.1269        228
  10.1454        255
  10.1640        257
  10.1826        210
  10.2012        269
  10.2197        220
  10.2383        241
  10.2569        256
  10.2755        242
  10.2940        233
  10.3126        229
  10.3312        240
  10.3498        251
  10.3683        245
  10.3869        250
  10.4055        236
  10.4241        247
  10.4427        222
  10.4612        244
  10.4798        248
  10.4984        238
  10.5170        251
  10.5355        258
  10.5541        264
  10.5727        276
  10.5913        229
  10.6098        259
  10.6284        234
  10.6470        241
  10.6656        270
  10.6841        243
  10.7027        248
  10.7213        246
  10.7399        251
  10.7584        228
  10.7770        259
  10.7956        241
  10.8142        222
  10.8327        234
  10.8513        233
  10.8699        246
  10.8885        236
  10.9070        242
  10.9256        240
  10.9442        239
  10.9628        237
  10.9813        225
  10.9999        216
  11.0185        253
  11.0371        215
  11.0556        209
  11.0742        237
  11.0928        246
  11.1114        249
  11.1299        227
  11.1485        261
  11.1671        224
  11.1857        247
  11.2043        245
  11.2228        216
  11.2414        243
  11.2600        230
  11.2786        235
  11.2971        234
  11.3157        258
  11.3343        245
  11.3529        252
  11.3714        252
  11.3900        241
  11.4086        238
  11.4272        241
  11.4457        273
  11.4643        244
  11.4829        254
  11.5015        260
  11.5200        190
  11.5386        244
  11.5572        252
  11.5758        214
  11.5943        244
  11.6129        239
  11.6315        244
  11.6501        235
  11.6686        227
  11.6872        241
  11.7058        242
  11.7244        231
  11.7429        223
  11.7615        210
  11.7801        245
  11.7987        228
  11.8172        227
  11.8358        228
  11.8544        242
  11.8730        233
  11.8915        212
  11.9101        214
  11.9287        249
  11.9473        210
  11.9659        253
  11.9844        235
  12.0030        261
  12.0216        212
  12.0402        236
  12.0587        240
  12.0773        211
  12.0959        228
  12.1145        249
  12.1330        229
  12.1516        202
  12.1702        210
  12.1888        217
  12.2073        202
  12.2259        232
  12.2445        215
  12.2631        205
  12.2816        219
  12.3002        213
  12.3188        226
  12.3374        213
  12.3559        243
  12.3745        223
  12.3931        216
  12.4117        205
  12.4302        219
  12.4488        216
  12.4674        224
  12.4860        222
  12.5045        190
  12.5231        208
  12.5417        194
  12.5603        214
  12.5788        203
  12.5974        214
  12.6160        205
  12.6346        207
  12.6531        210
  12.6717        196
  12.6903        211
  12.7089        214
  12.7274        222
  12.7460        214
  12.7646        221
  12.7832        194
  12.8018        221
  12.8203        209
  12.8389        218
  12.8575        207
  12.8761        211
  12.8946        218
  12.9132        190
  12.9318        232
  12.9504        201
  12.9689        228
  12.9875        221
  13.0061        191
  13.0247        217
  13.0432        223
  13.0618        189
  13.0804        198
  13.0990        202
  13.1175        203
  13.1361        212
  13.1547        202
  13.1733        220
  13.1918        213
  13.2104        181
  13.2290        205
  13.2476        212
  13.2661        209
  13.2847        205
  13.3033        197
  13.3219        185
  13.3404        179
  13.3590        190
  13.3776        186
  13.3962        204
  13.4147        194
  13.4333        178
  13.4519        198
  13.4705        199
  13.4890        198
  13.5076        188
  13.5262        174
  13.5448        168
  13.5634        203
  13.5819        212
  13.6005        180
  13.6191        210
  13.6377        193
  13.6562        225
  13.6748        156
  13.6934        195
  13.7120        220
  13.7305        188
  13.7491        208
  13.7677        177
  13.7863        189
  13.8048        177
  13.8234        195
  13.8420        171
  13.8606        183
  13.8791        197
  13.8977        186
  13.9163        166
  13.9349        179
  13.9534        181
  13.9720        190
  13.9906        172
  14.0092        172
  14.0277        185
  14.0463        187
  14.0649        186
  14.0835        163
  14.1020        167
  14.1206        180
  14.1392        197
  14.1578        190
  14.1763        192
  14.1949        185
  14.2135        170
  14.2321        156
  14.2506        157
  14.2692        169
  14.2878        170
  14.3064        170
  14.3250        180
  14.3435        155
  14.3621        164
  14.3807        180
  14.3993        220
  14.4178        168
  14.4364        171
  14.4550        180
  14.4736        159
  14.4921        181
  14.5107        173
  14.5293        179
  14.5479        159
  14.5664        170
  14.5850        155
  14.6036        198
  14.6222        168
  14.6407        147
  14.6593        168
  14.6779        147
  14.6965        166
  14.7150        189
  14.7336        159
  14.7522        163
  14.7708        184
  14.7893        179
  14.8079        158
  14.8265        186
  14.8451        170
  14.8636        177
  14.8822        166
  14.9008        164
  14.9194        192
  14.9379        173
  14.9565        159
  14.9751        162
  14.9937        172
  15.0122        183
  15.0308        175
  15.0494        165
  15.0680        166
  15.0866        157
  15.1051        170
  15.1237        180
  15.1423        171
  15.1609        143
  15.1794        157
  15.1980        157
  15.2166        153
  15.2352        149
  15.2537        165
  15.2723        167
  15.2909        181
  15.3095        170
  15.3280        167
  15.3466        176
  15.3652        205
  15.3838        164
  15.4023        174
  15.4209        182
  15.4395        189
  15.4581        164
  15.4766        158
  15.4952        180
  15.5138        136
  15.5324        182
  15.5509        174
  15.5695        194
  15.5881        172
  15.6067        156
  15.6252        169
  15.6438        166
  15.6624        165
  15.6810        159
  15.6995        148
  15.7181        134
  15.7367        168
  15.7553        178
  15.7738        169
  15.7924        176
  15.8110        154
  15.8296        152
  15.8482        143
  15.8667        148
  15.8853        175
  15.9039        153
  15.9225        185
  15.9410        171
  15.9596        161
  15.9782        148
  15.9968        157
  16.0153        151
  16.0339        168
  16.0525        156
  16.0711        178
  16.0896        163
  16.1082        193
  16.1268        163
  16.1454        173
  16.1639        148
  16.1825        147
  16.2011        176
  16.2197        163
  16.2382        142
  16.2568        140
  16.2754        187
  16.2940        161
  16.3125        148
  16.3311        157
  16.3497        140
  16.3683        175
  16.3868        168
  16.4054        164
  16.4240        168
  16.4426        154
  16.4611        154
  16.4797        148
  16.4983        163
  16.5169        162
  16.5354        172
  16.5540        144
  16.5726        156
  16.5912        190
  16.6097        155
  16.6283        149
  16.6469        180
  16.6655        169
  16.6841        171
  16.7026        186
  16.7212        164
  16.7398        169
  16.7584        178
  16.7769        184
  16.7955        146
  16.8141        192
  16.8327        128
  16.8512        163
  16.8698        157
  16.8884        178
  16.9070        165
  16.9255        150
  16.9441        162
  16.9627        165
  16.9813        187
  16.9998        131
  17.0184        163
  17.0370        165
  17.0556        148
  17.0741        187
  17.0927        176
  17.1113        180
  17.1299        180
  17.1484        156
  17.1670        176
  17.1856        155
  17.2042        167
  17.2227        165
  17.2413        162
  17.2599        150
  17.2785        154
  17.2970        164
  17.3156        162
  17.3342        165
  17.3528        145
  17.3713        175
  17.3899        151
  17.4085        153
  17.4271        167
  17.4457        168
  17.4642        175
  17.4828        161
  17.5014        173
  17.5200        139
  17.5385        168
  17.5571        159
  17.5757        173
  17.5943        158
  17.6128        161
  17.6314        162
  17.6500        153
  17.6686        165
  17.6871        163
  17.7057        153
  17.7243        168
  17.7429        143
  17.7614        141
  17.7800        156
  17.7986        165
  17.8172        139
  17.8357        159
  17.8543        178
  17.8729        151
  17.8915        152
  17.9100        163
  17.9286        152
  17.9472        162
  17.9658        178
  17.9843        162
  18.0029        173
  18.0215        166
  18.0401        166
  18.0586        150
  18.0772        173
  18.0958        171
  18.1144        153
  18.1329        161
  18.1515        169
  18.1701        179
  18.1887        188
  18.2073        173
  18.2258        168
  18.2444        156
  18.2630        154
  18.2816        166
  18.3001        184
  18.3187        173
  18.3373        138
  18.3559        164
  18.3744        137
  18.3930        185
  18.4116        135
  18.4302        151
  18.4487        161
  18.4673        167
  18.4859        167
  18.5045        160
  18.5230        184
  18.5416        175
  18.5602        149
  18.5788        172
  18.5973        181
  18.6159        156
  18.6345        152
  18.6531        158
  18.6716        167
  18.6902        169
  18.7088        166
  18.7274        167
  18.7459        174
  18.7645        151
  18.7831        171
  18.8017        154
  18.8202        180
  18.8388        176
  18.8574        154
  18.8760        180
  18.8945        170
  18.9131        164
  18.9317        187
  18.9503        182
  18.9689        152
  18.9874        161
  19.0060        160
  19.0246        166
  19.0432        162
  19.0617        173
  19.0803        151
  19.0989        171
  19.1175        155
  19.1360        169
  19.1546        157
  19.1732        171
  19.1918        183
  19.2103        186
  19.2289        174
  19.2475        166
  19.2661        173
  19.2846        150
  19.3032        164
  19.3218        162
  19.3404        186
  19.3589        154
  19.3775        187
  19.3961        173
  19.4147        195
  19.4332        179
  19.4518        172
  19.4704        176
  19.4890        183
  19.5075        170
  19.5261        149
  19.5447        164
  19.5633        164
  19.5818        185
  19.6004        175
  19.6190        197
  19.6376        196
  19.6561        177
  19.6747        177
  19.6933        173
  19.7119        179
  19.7305        184
  19.7490        176
  19.7676        178
  19.7862        167
  19.8048        181
  19.8233        170
  19.8419        176
  19.8605        174
  19.8791        139
  19.8976        163
  19.9162        171
  19.9348        189
  19.9534        177
  19.9719        164
  19.9905        192
  20.0091        206
  20.0277        161
  20.0462        184
  20.0648        185
  20.0834        173
  20.1020        168
  20.1205        160
  20.1391        185
  20.1577        193
  20.1763        182
  20.1948        177
  20.2134        189
  20.2320        161
  20.2506        157
  20.2691        164
  20.2877        181
  20.3063        191
  20.3249        202
  20.3434        166
  20.3620        160
  20.3806        197
  20.3992        190
  20.4177        188
  20.4363        178
  20.4549        179
  20.4735        191
  20.4921        187
  20.5106        168
  20.5292        176
  20.5478        170
  20.5664        183
  20.5849        187
  20.6035        173
  20.6221        178
  20.6407        173
  20.6592        173
  20.6778        188
  20.6964        170
  20.7150        189
  20.7335        189
  20.7521        201
  20.7707        166
  20.7893        179
  20.8078        182
  20.8264        178
  20.8450        191
  20.8636        184
  20.8821        205
  20.9007        197
  20.9193        204
  20.9379        184
  20.9564        177
  20.9750        217
  20.9936        204
  21.0122        197
  21.0307        204
  21.0493        162
  21.0679        197
  21.0865        194
  21.1050        197
  21.1236        200
  21.1422        212
  21.1608        257
  21.1793        254
  21.1979        270
  21.2165        323
  21.2351        317
  21.2537        348
  21.2722        274
  21.2908        294
  21.3094        318
  21.3280        414
  21.3465        506
  21.3651        510
  21.3837        432
  21.4023        408
  21.4208        387
  21.4394        300
  21.4580        234
  21.4766        227
  21.4951        218
  21.5137        186
  21.5323        206
  21.5509        213
  21.5694        187
  21.5880        199
  21.6066        210
  21.6252        226
  21.6437        217
  21.6623        194
  21.6809        229
  21.6995        203
  21.7180        208
  21.7366        196
  21.7552        192
  21.7738        187
  21.7923        183
  21.8109        182
  21.8295        197
  21.8481        194
  21.8666        192
  21.8852        216
  21.9038        194
  21.9224        191
  21.9409        189
  21.9595        220
  21.9781        166
  21.9967        191
  22.0152        183
  22.0338        194
  22.0524        218
  22.0710        177
  22.0896        179
  22.1081        198
  22.1267        196
  22.1453        184
  22.1639        200
  22.1824        184
  22.2010        199
  22.2196        187
  22.2382        199
  22.2567        197
  22.2753        198
  22.2939        192
  22.3125        200
  22.3310        192
  22.3496        210
  22.3682        185
  22.3868        209
  22.4053        215
  22.4239        188
  22.4425        212
  22.4611        187
  22.4796        216
  22.4982        168
  22.5168        200
  22.5354        190
  22.5539        200
  22.5725        180
  22.5911        194
  22.6097        187
  22.6282        195
  22.6468        222
  22.6654        179
  22.6840        174
  22.7025        182
  22.7211        192
  22.7397        176
  22.7583        206
  22.7768        187
  22.7954        185
  22.8140        189
  22.8326        198
  22.8512        199
  22.8697        191
  22.8883        207
  22.9069        205
  22.9255        193
  22.9440        201
  22.9626        208
  22.9812        209
  22.9998        200
  23.0183        201
  23.0369        201
  23.0555        217
  23.0741        199
  23.0926        199
  23.1112        184
  23.1298        191
  23.1484        206
  23.1669        192
  23.1855        215
  23.2041        200
  23.2227        200
  23.2412        219
  23.2598        192
  23.2784        198
  23.2970        195
  23.3155        201
  23.3341        214
  23.3527        190
  23.3713        191
  23.3898        213
  23.4084        196
  23.4270        203
  23.4456        202
  23.4641        186
  23.4827        200
  23.5013        205
  23.5199        192
  23.5384        193
  23.5570        190
  23.5756        194
  23.5942        219
  23.6128        190
  23.6313        196
  23.6499        195
  23.6685        203
  23.6871        219
  23.7056        180
  23.7242        200
  23.7428        193
  23.7614        187
  23.7799        210
  23.7985        202
  23.8171        192
  23.8357        203
  23.8542        212
  23.8728        237
  23.8914        187
  23.9100        206
  23.9285        211
  23.9471        193
  23.9657        208
  23.9843        202
  24.0028        207
  24.0214        205
  24.0400        205
  24.0586        211
  24.0771        211
  24.0957        197
  24.1143        180
  24.1329        220
  24.1514        190
  24.1700        203
  24.1886        200
  24.2072        193
  24.2257        209
  24.2443        221
  24.2629        228
  24.2815        256
  24.3000        215
  24.3186        224
  24.3372        221
  24.3558        204
  24.3744        225
  24.3929        191
  24.4115        224
  24.4301        207
  24.4487        202
  24.4672        204
  24.4858        208
  24.5044        237
  24.5230        222
  24.5415        200
  24.5601        181
  24.5787        194
  24.5973        195
  24.6158        189
  24.6344        194
  24.6530        201
  24.6716        209
  24.6901        216
  24.7087        219
  24.7273        189
  24.7459        206
  24.7644        179
  24.7830        210
  24.8016        194
  24.8202        219
  24.8387        222
  24.8573        218
  24.8759        224
  24.8945        194
  24.9130        180
  24.9316        195
  24.9502        212
  24.9688        160
  24.9873        205
  25.0059        208
  25.0245        162
  25.0431        208
  25.0616        177
  25.0802        240
  25.0988        203
  25.1174        186
  25.1360        183
  25.1545        210
  25.1731        203
  25.1917        195
  25.2103        204
  25.2288        198
  25.2474        208
  25.2660        176
  25.2846        188
  25.3031        208
  25.3217        205
  25.3403        206
  25.3589        197
  25.3774        203
  25.3960        201
  25.4146        212
  25.4332        193
  25.4517        197
  25.4703        193
  25.4889        182
  25.5075        202
  25.5260        201
  25.5446        219
  25.5632        197
  25.5818        170
  25.6003        188
  25.6189        176
  25.6375        198
  25.6561        178
  25.6746        198
  25.6932        213
  25.7118        183
  25.7304        172
  25.7489        185
  25.7675        205
  25.7861        187
  25.8047        196
  25.8232        200
  25.8418        182
  25.8604        191
  25.8790        203
  25.8976        199
  25.9161        184
  25.9347        233
  25.9533        188
  25.9719        180
  25.9904        183
  26.0090        190
  26.0276        197
  26.0462        214
  26.0647        203
  26.0833        209
  26.1019        202
  26.1205        185
  26.1390        173
  26.1576        203
  26.1762        176
  26.1948        182
  26.2133        198
  26.2319        187
  26.2505        188
  26.2691        199
  26.2876        201
  26.3062        178
  26.3248        188
  26.3434        170
  26.3619        198
  26.3805        170
  26.3991        188
  26.4177        193
  26.4362        189
  26.4548        164
  26.4734        197
  26.4920        161
  26.5105        180
  26.5291        197
  26.5477        195
  26.5663        195
  26.5848        216
  26.6034        179
  26.6220        182
  26.6406        181
  26.6591        201
  26.6777        193
  26.6963        170
  26.7149        188
  26.7335        203
  26.7520        184
  26.7706        195
  26.7892        189
  26.8078        181
  26.8263        175
  26.8449        195
  26.8635        164
  26.8821        168
  26.9006        170
  26.9192        186
  26.9378        171
  26.9564        160
  26.9749        207
  26.9935        176
  27.0121        194
  27.0307        197
  27.0492        179
  27.0678        178
  27.0864        199
  27.1050        202
  27.1235        208
  27.1421        196
  27.1607        239
  27.1793        249
  27.1978        236
  27.2164        232
  27.2350        209
  27.2536        227
  27.2721        224
  27.2907        208
  27.3093        185
  27.3279        172
  27.3464        187
  27.3650        198
  27.3836        204
  27.4022        177
  27.4207        184
  27.4393        197
  27.4579        195
  27.4765        186
  27.4951        176
  27.5136        178
  27.5322        167
  27.5508        182
  27.5694        174
  27.5879        160
  27.6065        160
  27.6251        176
  27.6437        171
  27.6622        176
  27.6808        169
  27.6994        163
  27.7180        187
  27.7365        169
  27.7551        168
  27.7737        145
  27.7923        177
  27.8108        192
  27.8294        162
  27.8480        211
  27.8666        182
  27.8851        177
  27.9037        154
  27.9223        175
  27.9409        146
  27.9594        168
  27.9780        148
  27.9966        197
  28.0152        171
  28.0337        155
  28.0523        179
  28.0709        145
  28.0895        170
  28.1080        194
  28.1266        189
  28.1452        176
  28.1638        183
  28.1823        168
  28.2009        155
  28.2195        167
  28.2381        180
  28.2567        153
  28.2752        164
  28.2938        171
  28.3124        186
  28.3310        197
  28.3495        157
  28.3681        176
  28.3867        174
  28.4053        182
  28.4238        173
  28.4424        162
  28.4610        152
  28.4796        169
  28.4981        174
  28.5167        157
  28.5353        171
  28.5539        174
  28.5724        163
  28.5910        161
  28.6096        166
  28.6282        165
  28.6467        148
  28.6653        191
  28.6839        168
  28.7025        175
  28.7210        209
  28.7396        196
  28.7582        157
  28.7768        175
  28.7953        169
  28.8139        168
  28.8325        170
  28.8511        139
  28.8696        165
  28.8882        176
  28.9068        152
  28.9254        153
  28.9439        154
  28.9625        164
  28.9811        174
  28.9997        160
  29.0183        155
  29.0368        154
  29.0554        164
  29.0740        148
  29.0926        161
  29.1111        175
  29.1297        156
  29.1483        145
  29.1669        184
  29.1854        141
  29.2040        137
  29.2226        156
  29.2412        167
  29.2597        187
  29.2783        168
  29.2969        129
  29.3155        205
  29.3340        177
  29.3526        184
  29.3712        157
  29.3898        157
  29.4083        154
  29.4269        162
  29.4455        150
  29.4641        163
  29.4826        152
  29.5012        151
  29.5198        175
  29.5384        152
  29.5569        156
  29.5755        176
  29.5941        172
  29.6127        151
  29.6312        194
  29.6498        148
  29.6684        161
  29.6870        139
  29.7055        147
  29.7241        157
  29.7427        153
  29.7613        173
  29.7799        145
  29.7984        146
  29.8170        160
  29.8356        158
  29.8542        155
  29.8727        148
  29.8913        158
  29.9099        158
  29.9285        136
  29.9470        155
  29.9656        149
  29.9842        156
  30.0028        147
  30.0213        141
  30.0399        163
  30.0585        140
  30.0771        152
  30.0956        155
  30.1142        163
  30.1328        164
  30.1514        147
  30.1699        130
  30.1885        180
  30.2071        173
  30.2257        159
  30.2442        163
  30.2628        126
  30.2814        169
  30.3000        170
  30.3185        185
  30.3371        205
  30.3557        213
  30.3743        306
  30.3928        328
  30.4114        301
  30.4300        239
  30.4486        240
  30.4671        240
  30.4857        216
  30.5043        172
  30.5229        147
  30.5415        164
  30.5600        156
  30.5786        179
  30.5972        161
  30.6158        132
  30.6343        176
  30.6529        135
  30.6715        155
  30.6901        135
  30.7086        140
  30.7272        137
  30.7458        166
  30.7644        133
  30.7829        166
  30.8015        153
  30.8201        157
  30.8387        146
  30.8572        156
  30.8758        159
  30.8944        156
  30.9130        148
  30.9315        134
  30.9501        133
  30.9687        142
  30.9873        129
  31.0058        144
  31.0244        151
  31.0430        153
  31.0616        149
  31.0801        153
  31.0987        146
  31.1173        156
  31.1359        140
  31.1544        150
  31.1730        134
  31.1916        157
  31.2102        127
  31.2287        125
  31.2473        143
  31.2659        144
  31.2845        130
  31.3030        137
  31.3216        141
  31.3402        169
  31.3588        154
  31.3774        131
  31.3959        140
  31.4145        126
  31.4331        143
  31.4517        154
  31.4702        141
  31.4888        125
  31.5074        116
  31.5260        131
  31.5445        145
  31.5631        159
  31.5817        148
  31.6003        125
  31.6188        121
  31.6374        149
  31.6560        132
  31.6746        135
  31.6931        139
  31.7117        147
  31.7303        141
  31.7489        140
  31.7674        131
  31.7860        129
  31.8046        135
  31.8232        137
  31.8417        145
  31.8603        127
  31.8789        136
  31.8975        127
  31.9160        125
  31.9346        129
  31.9532        153
  31.9718        144
  31.9903        149
  32.0089        126
  32.0275        124
  32.0461        130
  32.0646        151
  32.0832        144
  32.1018        141
  32.1204        130
  32.1390        143
  32.1575        114
  32.1761        160
  32.1947        114
  32.2133        125
  32.2318        124
  32.2504        143
  32.2690        130
  32.2876        119
  32.3061        127
  32.3247        145
  32.3433        132
  32.3619        133
  32.3804        138
  32.3990        125
  32.4176        137
  32.4362        135
  32.4547        162
  32.4733        140
  32.4919        131
  32.5105        132
  32.5290        129
  32.5476        138
  32.5662        143
  32.5848        138
  32.6033        149
  32.6219        130
  32.6405        123
  32.6591        122
  32.6776        123
  32.6962        110
  32.7148        126
  32.7334        134
  32.7519        124
  32.7705        119
  32.7891        127
  32.8077        116
  32.8262        121
  32.8448        137
  32.8634        117
  32.8820        121
  32.9006        120
  32.9191        112
  32.9377        129
  32.9563        123
  32.9749        116
  32.9934        126
  33.0120        127
  33.0306        119
  33.0492        132
  33.0677        120
  33.0863        120
  33.1049        118
  33.1235        134
  33.1420        122
  33.1606        106
  33.1792        117
  33.1978        133
  33.2163        117
  33.2349        124
  33.2535        125
  33.2721        123
  33.2906        117
  33.3092        122
  33.3278        129
  33.3464        129
  33.3649        115
  33.3835        125
  33.4021        131
  33.4207        107
  33.4392        127
  33.4578        113
  33.4764        118
  33.4950        125
  33.5135        101
  33.5321        143
  33.5507        148
  33.5693        106
  33.5878        121
  33.6064        136
  33.6250        110
  33.6436        105
  33.6622        121
  33.6807        123
  33.6993        123
  33.7179        125
  33.7365        109
  33.7550        111
  33.7736        128
  33.7922        137
  33.8108        111
  33.8293        126
  33.8479        111
  33.8665        146
  33.8851        123
  33.9036        102
  33.9222        108
  33.9408        124
  33.9594        133
  33.9779        129
  33.9965        115
  34.0151        122
  34.0337        115
  34.0522         94
  34.0708        118
  34.0894        107
  34.1080        114
  34.1265        119
  34.1451        136
  34.1637        122
  34.1823         98
  34.2008        106
  34.2194        112
  34.2380        106
  34.2566        145
  34.2751        111
  34.2937        117
  34.3123        105
  34.3309        120
  34.3494        112
  34.3680        100
  34.3866        124
  34.4052        104
  34.4238        104
  34.4423        112
  34.4609        111
  34.4795        114
  34.4981        110
  34.5166        108
  34.5352        101
  34.5538        123
  34.5724        122
  34.5909        115
  34.6095        111
  34.6281        128
  34.6467        131
  34.6652        120
  34.6838        118
  34.7024        132
  34.7210        164
  34.7395        162
  34.7581        169
  34.7767        151
  34.7953        147
  34.8138        156
  34.8324        128
  34.8510        119
  34.8696        146
  34.8881        131
  34.9067        136
  34.9253        123
  34.9439        120
  34.9624        124
  34.9810        126
  34.9996        132
  35.0182        105
  35.0367         83
  35.0553        113
  35.0739         96
  35.0925        112
  35.1110        100
  35.1296        111
  35.1482         91
  35.1668        117
  35.1854         92
  35.2039        104
  35.2225         91
  35.2411        105
  35.2597        124
  35.2782        100
  35.2968        116
  35.3154        111
  35.3340        107
  35.3525        100
  35.3711        120
  35.3897        106
  35.4083        117
  35.4268         99
  35.4454         95
  35.4640         90
  35.4826         98
  35.5011        108
  35.5197        106
  35.5383         97
  35.5569         85
  35.5754         81
  35.5940        111
  35.6126        110
  35.6312        118
  35.6497        102
  35.6683        107
  35.6869        106
  35.7055        107
  35.7240         85
  35.7426         85
  35.7612         85
  35.7798        106
  35.7983         85
  35.8169        106
  35.8355         91
  35.8541        105
  35.8726         97
  35.8912         85
  35.9098         89
  35.9284        105
  35.9469         91
  35.9655         95
  35.9841        105
  36.0027         95
  36.0213         88
  36.0398        110
  36.0584         87
  36.0770        100
  36.0956         87
  36.1141         96
  36.1327         87
  36.1513        105
  36.1699        101
  36.1884        103
  36.2070         86
  36.2256         68
  36.2442        104
  36.2627         98
  36.2813         90
  36.2999         78
  36.3185         96
  36.3370         90
  36.3556         99
  36.3742        106
  36.3928        107
  36.4113         93
  36.4299         83
  36.4485        102
  36.4671         96
  36.4856         96
  36.5042         91
  36.5228        108
  36.5414         89
  36.5599         84
  36.5785         94
  36.5971         94
  36.6157         94
  36.6342         95
  36.6528         97
  36.6714         92
  36.6900         97
  36.7085         95
  36.7271         79
  36.7457         91
  36.7643         99
  36.7829        107
  36.8014         77
  36.8200        117
  36.8386         94
  36.8572        103
  36.8757        106
  36.8943         75
  36.9129        105
  36.9315         95
  36.9500        101
  36.9686         89
  36.9872         91
  37.0058         68
  37.0243         89
  37.0429         90
  37.0615        104
  37.0801         90
  37.0986        100
  37.1172         91
  37.1358         88
  37.1544         90
  37.1729         96
  37.1915         83
  37.2101         81
  37.2287         91
  37.2472         78
  37.2658         92
  37.2844         82
  37.3030         90
  37.3215         88
  37.3401         84
  37.3587         71
  37.3773        107
  37.3958        106
  37.4144        107
  37.4330        167
  37.4516        141
  37.4701        123
  37.4887        111
  37.5073        112
  37.5259        116
  37.5445        121
  37.5630        117
  37.5816        101
  37.6002        103
  37.6188         94
  37.6373         90
  37.6559         81
  37.6745         80
  37.6931         86
  37.7116        102
  37.7302        105
  37.7488         98
  37.7674         73
  37.7859         90
  37.8045         97
  37.8231         84
  37.8417         74
  37.8602         87
  37.8788         84
  37.8974         90
  37.9160         81
  37.9345         93
  37.9531         97
  37.9717         69
  37.9903         83
  38.0088         84
  38.0274         86
  38.0460         90
  38.0646         95
  38.0831         90
  38.1017         88
  38.1203         72
  38.1389         72
  38.1574         94
  38.1760         88
  38.1946         89
  38.2132         94
  38.2317         70
  38.2503         83
  38.2689         76
  38.2875         90
  38.3061         76
  38.3246         92
  38.3432         78
  38.3618         93
  38.3804         78
  38.3989         93
  38.4175         90
  38.4361         80
  38.4547         98
  38.4732         82
  38.4918         73
  38.5104         82
  38.5290         84
  38.5475         80
  38.5661         74
  38.5847         80
  38.6033         75
  38.6218         98
  38.6404         77
  38.6590         87
  38.6776         80
  38.6961         87
  38.7147         97
  38.7333         77
  38.7519         87
  38.7704         90
  38.7890         88
  38.8076         72
  38.8262         70
  38.8447         88
  38.8633         86
  38.8819         78
  38.9005         75
  38.9190         83
  38.9376         81
  38.9562         79
  38.9748         77
  38.9933         76
  39.0119         76
  39.0305         76
  39.0491         83
  39.0677         81
  39.0862         85
  39.1048         93
  39.1234         89
  39.1420         63
  39.1605         96
  39.1791         71
  39.1977         86
  39.2163         90
  39.2348        101
  39.2534         81
  39.2720         89
  39.2906         99
  39.3091         82
  39.3277         71
  39.3463         72
  39.3649         83
  39.3834         85
  39.4020         91
  39.4206         77
  39.4392         72
  39.4577         77
  39.4763         68
  39.4949         73
  39.5135         84
  39.5320         82
  39.5506         70
  39.5692         85
  39.5878         69
  39.6063         71
  39.6249         82
  39.6435         79
  39.6621         78
  39.6806         71
  39.6992         83
  39.7178         90
  39.7364         63
  39.7549         82
  39.7735         88
  39.7921         81
  39.8107         90
  39.8293         74
  39.8478         74
  39.8664         70
  39.8850         80
  39.9036         86
  39.9221         84
  39.9407         85
  39.9593         99
  39.9779         64
  39.9964         83
  40.0150         65
  40.0336         87
  40.0522         83
  40.0707         79
  40.0893         78
  40.1079         90
  40.1265         65
  40.1450         92
  40.1636         82
  40.1822         78
  40.2008         66
  40.2193         89
  40.2379         58
  40.2565         81
  40.2751         73
  40.2936         75
  40.3122         81
  40.3308         75
  40.3494         91
  40.3679         67
  40.3865         75
  40.4051         92
  40.4237         77
  40.4422         70
  40.4608         86
  40.4794         77
  40.4980         61
  40.5165         67
  40.5351         73
  40.5537         74
  40.5723         77
  40.5908         60
  40.6094         82
  40.6280         73
  40.6466         71
  40.6652         71
  40.6837         80
  40.7023         79
  40.7209         65
  40.7395         75
  40.7580         80
  40.7766         77
  40.7952         84
  40.8138         79
  40.8323         86
  40.8509         87
  40.8695         78
  40.8881         74
  40.9066         78
  40.9252         81
  40.9438         78
  40.9624         76
  40.9809         82
  40.9995         75
  41.0181         81
  41.0367         68
  41.0552         95
  41.0738         84
  41.0924         69
  41.1110         66
  41.1295         74
  41.1481         64
  41.1667         81
  41.1853         62
  41.2038         76
  41.2224         69
  41.2410         82
  41.2596         85
  41.2781         56
  41.2967         76
  41.3153         77
  41.3339         78
  41.3524         85
  41.3710         63
  41.3896         77
  41.4082         54
  41.4268         71
  41.4453         74
  41.4639         84
  41.4825         81
  41.5011         70
  41.5196         58
  41.5382         68
  41.5568         63
  41.5754         69
  41.5939         74
  41.6125         80
  41.6311         71
  41.6497         69
  41.6682         74
  41.6868         63
  41.7054         70
  41.7240         81
  41.7425         65
  41.7611         65
  41.7797         60
  41.7983         76
  41.8168         69
  41.8354         84
  41.8540         58
  41.8726         85
  41.8911         71
  41.9097         70
  41.9283         86
  41.9469         67
  41.9654         73
  41.9840         60
  42.0026         73
  42.0212         65
  42.0397         71
  42.0583         78
  42.0769         75
  42.0955         67
  42.1140         78
  42.1326         84
  42.1512         65
  42.1698         63
  42.1884         79
  42.2069         69
  42.2255         80
  42.2441         66
  42.2627         60
  42.2812         67
  42.2998         68
  42.3184         72
  42.3370         77
  42.3555         66
  42.3741         79
  42.3927         76
  42.4113         62
  42.4298         70
  42.4484         66
  42.4670         77
  42.4856         85
  42.5041         59
  42.5227         84
  42.5413         64
  42.5599         81
  42.5784         64
  42.5970         74
  42.6156         62
  42.6342         83
  42.6527         60
  42.6713         76
  42.6899         60
  42.7085         90
  42.7270         90
  42.7456         72
  42.7642         77
  42.7828         83
  42.8013         71
  42.8199         65
  42.8385         59
  42.8571         93
  42.8756         59
  42.8942         77
  42.9128         86
  42.9314         62
  42.9500         80
  42.9685         80
  42.9871         82
  43.0057         84
  43.0243         71
  43.0428         71
  43.0614         62
  43.0800         58
  43.0986         63
  43.1171         85
  43.1357         84
  43.1543         84
  43.1729         76
  43.1914         95
  43.2100         97
  43.2286         86
  43.2472         91
  43.2657         81
  43.2843         90
  43.3029         93
  43.3215         86
  43.3400         92
  43.3586         83
  43.3772         83
  43.3958         82
  43.4143         63
  43.4329         85
  43.4515         79
  43.4701         96
  43.4886        118
  43.5072        124
  43.5258        119
  43.5444        105
  43.5629         88
  43.5815         81
  43.6001        118
  43.6187        123
  43.6372         92
  43.6558         97
  43.6744         76
  43.6930         78
  43.7116         84
  43.7301         73
  43.7487         66
  43.7673         69
  43.7859         69
  43.8044         73
  43.8230         84
  43.8416         79
  43.8602         68
  43.8787         74
  43.8973         71
  43.9159         76
  43.9345         75
  43.9530         91
  43.9716         85
  43.9902         69
  44.0088         72
  44.0273         67
  44.0459         72
  44.0645         71
  44.0831         67
  44.1016         75
  44.1202         65
  44.1388         68
  44.1574         74
  44.1759         69
  44.1945         73
  44.2131         86
  44.2317         80
  44.2502         80
  44.2688         61
  44.2874         54
  44.3060         63
  44.3245         57
  44.3431         87
  44.3617         72
  44.3803         75
  44.3988         85
  44.4174         78
  44.4360         66
  44.4546         71
  44.4732         79
  44.4917         68
  44.5103         72
  44.5289         73
  44.5475         74
  44.5660         96
  44.5846         81
  44.6032         65
  44.6218         76
  44.6403         90
  44.6589         75
  44.6775         75
  44.6961         88
  44.7146         75
  44.7332         67
  44.7518         69
  44.7704         85
  44.7889         74
  44.8075         75
  44.8261         63
  44.8447         70
  44.8632         88
  44.8818         59
  44.9004         81
  44.9190         78
  44.9375         60
  44.9561         74
  44.9747         59
  44.9933         77
  45.0118         70
  45.0304         72
  45.0490         77
  45.0676         62
  45.0861         58
  45.1047         78
  45.1233         72
  45.1419         67
  45.1604         70
  45.1790         69
  45.1976         71
  45.2162         63
  45.2347         66
  45.2533         67
  45.2719         63
  45.2905         65
  45.3091         75
  45.3276         74
  45.3462         76
  45.3648         68
  45.3834         71
  45.4019         68
  45.4205         67
  45.4391         58
  45.4577         58
  45.4762         73
  45.4948         83
  45.5134         74
  45.5320         69
  45.5505         82
  45.5691         67
  45.5877         79
  45.6063         58
  45.6248         62
  45.6434         75
  45.6620         66
  45.6806         77
  45.6991         75
  45.7177         64
  45.7363         67
  45.7549         55
  45.7734         70
  45.7920         68
  45.8106         60
  45.8292         72
  45.8477         59
  45.8663         73
  45.8849         76
  45.9035         63
  45.9220         85
  45.9406         74
  45.9592         66
  45.9778         59
  45.9963         59
  46.0149         57
  46.0335         60
  46.0521         63
  46.0707         55
  46.0892         62
  46.1078         83
  46.1264         62
  46.1450         57
  46.1635         85
  46.1821         63
  46.2007         79
  46.2193         78
  46.2378         81
  46.2564         68
  46.2750         56
  46.2936         70
  46.3121         73
  46.3307         75
  46.3493         72
  46.3679         71
  46.3864         53
  46.4050         66
  46.4236         66
  46.4422         65
  46.4607         62
  46.4793         66
  46.4979         61
  46.5165         72
  46.5350         62
  46.5536         64
  46.5722         62
  46.5908         73
  46.6093         61
  46.6279         59
  46.6465         70
  46.6651         55
  46.6836         58
  46.7022         68
  46.7208         71
  46.7394         57
  46.7579         66
  46.7765         69
  46.7951         64
  46.8137         60
  46.8323         67
  46.8508         62
  46.8694         57
  46.8880         58
  46.9066         56
  46.9251         61
  46.9437         68
  46.9623         56
  46.9809         59
  46.9994         57
  47.0180         70
  47.0366         65
  47.0552         64
  47.0737         53
  47.0923         59
  47.1109         73
  47.1295         59
  47.1480         88
  47.1666         80
  47.1852         69
  47.2038         63
  47.2223         78
  47.2409         68
  47.2595         72
  47.2781         66
  47.2966         66
  47.3152         76
  47.3338         57
  47.3524         58
  47.3709         51
  47.3895         75
  47.4081         56
  47.4267         64
  47.4452         68
  47.4638         59
  47.4824         61
  47.5010         56
  47.5195         55
  47.5381         74
  47.5567         55
  47.5753         56
  47.5939         70
  47.6124         69
  47.6310         57
  47.6496         69
  47.6682         64
  47.6867         62
  47.7053         62
  47.7239         66
  47.7425         52
  47.7610         56
  47.7796         68
  47.7982         49
  47.8168         65
  47.8353         58
  47.8539         56
  47.8725         58
  47.8911         42
  47.9096         61
  47.9282         67
  47.9468         74
  47.9654         59
  47.9839         56
  48.0025         61
  48.0211         68
  48.0397         68
  48.0582         63
  48.0768         67
  48.0954         70
  48.1140         62
  48.1325         62
  48.1511         60
  48.1697         60
  48.1883         53
  48.2068         54
  48.2254         83
  48.2440         63
  48.2626         61
  48.2811         82
  48.2997         65
  48.3183         72
  48.3369         77
  48.3555         60
  48.3740         66
  48.3926         62
  48.4112         66
  48.4298         69
  48.4483         83
  48.4669         59
  48.4855         66
  48.5041         70
  48.5226         58
  48.5412         67
  48.5598         62
  48.5784         46
  48.5969         66
  48.6155         61
  48.6341         58
  48.6527         53
  48.6712         54
  48.6898         62
  48.7084         79
  48.7270         81
  48.7455         67
  48.7641         58
  48.7827         60
  48.8013         65
  48.8198         65
  48.8384         61
  48.8570         64
  48.8756         68
  48.8941         66
  48.9127         69
  48.9313         91
  48.9499        123
  48.9684        113
  48.9870         99
  49.0056         72
  49.0242         56
  49.0427         80
  49.0613         84
  49.0799        103
  49.0985         93
  49.1171         86
  49.1356         75
  49.1542         79
  49.1728         81
  49.1914         55
  49.2099         62
  49.2285         57
  49.2471         78
  49.2657         53
  49.2842         59
  49.3028         65
  49.3214         66
  49.3400         67
  49.3585         58
  49.3771         62
  49.3957         52
  49.4143         59
  49.4328         74
  49.4514         62
  49.4700         65
  49.4886         57
  49.5071         60
  49.5257         64
  49.5443         44
  49.5629         59
  49.5814         62
  49.6000         63
  49.6186         54
  49.6372         57
  49.6557         51
  49.6743         69
  49.6929         64
  49.7115         69
  49.7300         55
  49.7486         56
  49.7672         63
  49.7858         57
  49.8043         80
  49.8229         64
  49.8415         70
  49.8601         53
  49.8786         69
  49.8972         73
  49.9158         68
  49.9344         71
  49.9530         71
  49.9715         56
  49.9901         55
  50.0087         65
  50.0273         53
  50.0458         65
  50.0644         53
  50.0830         60
  50.1016         68
  50.1201         60
  50.1387         63
  50.1573         70
  50.1759         61
  50.1944         56
  50.2130         59
  50.2316         71
  50.2502         74
  50.2687         58
  50.2873         57
  50.3059         67
  50.3245         70
  50.3430         51
  50.3616         55
  50.3802         59
  50.3988         59
  50.4173         64
  50.4359         61
  50.4545         65
  50.4731         62
  50.4916         51
  50.5102         52
  50.5288         76
  50.5474         64
  50.5659         63
  50.5845         66
  50.6031         61
  50.6217         52
  50.6402         57
  50.6588         64
  50.6774         62
  50.6960         48
  50.7146         57
  50.7331         47
  50.7517         58
  50.7703         49
  50.7889         49
  50.8074         56
  50.8260         57
  50.8446         53
  50.8632         51
  50.8817         48
  50.9003         55
  50.9189         72
  50.9375         62
  50.9560         65
  50.9746         69
  50.9932         69
  51.0118         66
  51.0303         65
  51.0489         58
  51.0675         53
  51.0861         67
  51.1046         59
  51.1232         59
  51.1418         61
  51.1604         53
  51.1789         64
  51.1975         53
  51.2161         63
  51.2347         65
  51.2532         62
  51.2718         66
  51.2904         52
  51.3090         54
  51.3275         80
  51.3461         46
  51.3647         55
  51.3833         71
  51.4018         65
  51.4204         66
  51.4390         65
  51.4576         73
  51.4762         55
  51.4947         52
  51.5133         64
  51.5319         45
  51.5505         62
  51.5690         74
  51.5876         54
  51.6062         64
  51.6248         71
  51.6433         58
  51.6619         58
  51.6805         53
  51.6991         69
  51.7176         57
  51.7362         61
  51.7548         72
  51.7734         62
  51.7919         65
  51.8105         68
  51.8291         82
  51.8477         69
  51.8662         68
  51.8848         62
  51.9034         63
  51.9220         61
  51.9405         62
  51.9591         65
  51.9777         58
  51.9963         54
  52.0148         73
  52.0334         65
  52.0520         64
  52.0706         60
  52.0891         52
  52.1077         70
  52.1263         75
  52.1449         61
  52.1634         59
  52.1820         63
  52.2006         74
  52.2192         66
  52.2378         71
  52.2563         44
  52.2749         67
  52.2935         39
  52.3121         54
  52.3306         71
  52.3492         61
  52.3678         61
  52.3864         41
  52.4049         51
  52.4235         44
  52.4421         62
  52.4607         60
  52.4792         66
  52.4978         66
  52.5164         53
  52.5350         54
  52.5535         64
  52.5721         54
  52.5907         49
  52.6093         45
  52.6278         61
  52.6464         52
  52.6650         42
  52.6836         55
  52.7021         70
  52.7207         41
  52.7393         69
  52.7579         56
  52.7764         48
  52.7950         61
  52.8136         61
  52.8322         74
  52.8507         54
  52.8693         62
  52.8879         63
  52.9065         57
  52.9250         61
  52.9436         64
  52.9622         60
  52.9808         61
  52.9994         74
  53.0179         71
  53.0365         56
  53.0551         57
  53.0737         55
  53.0922         60
  53.1108         57
  53.1294         57
  53.1480         57
  53.1665         50
  53.1851         55
  53.2037         46
  53.2223         53
  53.2408         69
  53.2594         59
  53.2780         59
  53.2966         63
  53.3151         60
  53.3337         51
  53.3523         46
  53.3709         63
  53.3894         55
  53.4080         62
  53.4266         52
  53.4452         67
  53.4637         56
  53.4823         47
  53.5009         62
  53.5195         59
  53.5380         59
  53.5566         45
  53.5752         51
  53.5938         62
  53.6123         49
  53.6309         56
  53.6495         52
  53.6681         62
  53.6866         60
  53.7052         56
  53.7238         69
  53.7424         70
  53.7610         69
  53.7795         60
  53.7981         59
  53.8167         69
  53.8353         64
  53.8538         51
  53.8724         59
  53.8910         63
  53.9096         62
  53.9281         75
  53.9467         70
  53.9653         77
  53.9839         96
  54.0024         74
  54.0210         79
  54.0396         87
  54.0582         66
  54.0767         43
  54.0953         61
  54.1139         71
  54.1325         49
  54.1510         78
  54.1696         70
  54.1882         52
  54.2068         63
  54.2253         61
  54.2439         53
  54.2625         58
  54.2811         45
  54.2996         68
  54.3182         56
  54.3368         46
  54.3554         53
  54.3739         49
  54.3925         58
  54.4111         45
  54.4297         58
  54.4482         45
  54.4668         51
  54.4854         54
  54.5040         61
  54.5225         54
  54.5411         54
  54.5597         55
  54.5783         47
  54.5969         53
  54.6154         42
  54.6340         44
  54.6526         60
  54.6712         38
  54.6897         56
  54.7083         51
  54.7269         42
  54.7455         55
  54.7640         56
  54.7826         57
  54.8012         67
  54.8198         55
  54.8383         54
  54.8569         52
  54.8755         70
  54.8941         53
  54.9126         53
  54.9312         49
  54.9498         58
  54.9684         55
  54.9869         61
  55.0055         56
  55.0241         55
  55.0427         59
  55.0612         53
  55.0798         55
  55.0984         61
  55.1170         58
  55.1355         59
  55.1541         53
  55.1727         55
  55.1913         57
  55.2098         45
  55.2284         62
  55.2470         63
  55.2656         51
  55.2841         49
  55.3027         49
  55.3213         51
  55.3399         56
  55.3585         53
  55.3770         58
  55.3956         56
  55.4142         49
  55.4328         42
  55.4513         40
  55.4699         60
  55.4885         47
  55.5071         57
  55.5256         65
  55.5442         57
  55.5628         47
  55.5814         61
  55.5999         55
  55.6185         62
  55.6371         50
  55.6557         66
  55.6742         60
  55.6928         71
  55.7114         60
  55.7300         52
  55.7485         43
  55.7671         58
  55.7857         49
  55.8043         62
  55.8228         64
  55.8414         51
  55.8600         71
  55.8786         59
  55.8971         48
  55.9157         56
  55.9343         46
  55.9529         67
  55.9714         65
  55.9900         63
  56.0086         59
  56.0272         58
  56.0457         60
  56.0643         56
  56.0829         63
  56.1015         61
  56.1201         60
  56.1386         59
  56.1572         37
  56.1758         64
  56.1944         59
  56.2129         72
  56.2315         70
  56.2501         63
  56.2687         65
  56.2872         79
  56.3058         66
  56.3244         63
  56.3430         56
  56.3615         59
  56.3801         52
  56.3987         65
  56.4173         65
  56.4358         65
  56.4544         50
  56.4730         59
  56.4916         58
  56.5101         51
  56.5287         51
  56.5473         75
  56.5659         63
  56.5844         68
  56.6030         73
  56.6216         54
  56.6402         63
  56.6587         64
  56.6773         65
  56.6959         60
  56.7145         56
  56.7330         60
  56.7516         31
  56.7702         50
  56.7888         68
  56.8073         65
  56.8259         51
  56.8445         48
  56.8631         59
  56.8817         59
  56.9002         55
  56.9188         60
  56.9374         58
  56.9560         41
  56.9745         45
  56.9931         59
  57.0117         53
  57.0303         55
  57.0488         62
  57.0674         49
  57.0860         53
  57.1046         54
  57.1231         58
  57.1417         63
  57.1603         67
  57.1789         59
  57.1974         42
  57.2160         52
  57.2346         65
  57.2532         53
  57.2717         48
  57.2903         55
  57.3089         48
  57.3275         55
  57.3460         49
  57.3646         58
  57.3832         62
  57.4018         63
  57.4203         60
  57.4389         51
  57.4575         56
  57.4761         62
  57.4946         59
  57.5132         46
  57.5318         51
  57.5504         54
  57.5689         56
  57.5875         64
  57.6061         49
  57.6247         56
  57.6433         62
  57.6618         44
  57.6804         65
  57.6990         55
  57.7176         64
  57.7361         63
  57.7547         63
  57.7733         66
  57.7919         55
  57.8104         47
  57.8290         45
  57.8476         50
  57.8662         56
  57.8847         55
  57.9033         79
  57.9219         53
  57.9405         53
  57.9590         54
  57.9776         51
  57.9962         56
  58.0148         66
  58.0333         57
  58.0519         48
  58.0705         49
  58.0891         50
  58.1076         53
  58.1262         50
  58.1448         53
  58.1634         67
  58.1819         68
  58.2005         45
  58.2191         63
  58.2377         69
  58.2562         60
  58.2748         60
  58.2934         56
  58.3120         66
  58.3305         60
  58.3491         41
  58.3677         49
  58.3863         46
  58.4049         59
  58.4234         56
  58.4420         59
  58.4606         49
  58.4792         43
  58.4977         60
  58.5163         53
  58.5349         47
  58.5535         52
  58.5720         45
  58.5906         62
  58.6092         58
  58.6278         47
  58.6463         53
  58.6649         69
  58.6835         53
  58.7021         47
  58.7206         49
  58.7392         47
  58.7578         55
  58.7764         50
  58.7949         53
  58.8135         65
  58.8321         64
  58.8507         56
  58.8692         55
  58.8878         50
  58.9064         42
  58.9250         53
  58.9435         56
  58.9621         52
  58.9807         46
  58.9993         55
  59.0178         52
  59.0364         60
  59.0550         51
  59.0736         70
  59.0921         61
  59.1107         46
  59.1293         47
  59.1479         46
  59.1664         59
  59.1850         61
  59.2036         50
  59.2222         63
  59.2408         49
  59.2593         49
  59.2779         49
  59.2965         42
  59.3151         48
  59.3336         51
  59.3522         61
  59.3708         38
  59.3894         58
  59.4079         60
  59.4265         60
  59.4451         50
  59.4637         41
  59.4822         54
  59.5008         50
  59.5194         54
  59.5380         60
  59.5565         54
  59.5751         51
  59.5937         60
  59.6123         52
  59.6308         53
  59.6494         45
  59.6680         50
  59.6866         49
  59.7051         56
  59.7237         64
  59.7423         47
  59.7609         44
  59.7794         63
  59.7980         52
  59.8166         65
  59.8352         65
  59.8537         45
  59.8723         55
  59.8909         50
  59.9095         63
  59.9280         38
  59.9466         52
  59.9652         62
  59.9838         48
  60.0024         65
