; (content of file Y:\Sam\Apurva-07-20-2022\puck1\ML_20220721_36_SJD_0_LaB6-4min.raw)
_FILEVERSION = 3
_SAMPLE = ML_20220721_36_SJD_0_LaB6-4min
_+SAMPLE = 
_SITE = USA
_USER = Administrator
_GONIOMETER_CODE = 20
; Goniometer : D8 theta/2theta, stage : Unknown
_ATTACHMENTS_CODE = 0
_GONIOMETER_RADIUS = 200.5
_FIXED_DIVSLIT = 0.6
_FIXED_SAMPLESLIT = 0
_SOLLER_SLITS = 2
_FIXED_DETSLIT = 9.55
_MONOCHROMATOR = 0
; Incident beam monochromator : None
_SOLLER_SLITS_2 = N
_THIN_FILM = N
_BETA_FILTER = Y
_FIXED_ANTISLIT = 5.89
_ANALYZER_CODE = 0
; Received beam analyzer : None
_DATEMEASURED = "25-Jul-2022 16:33:52"
_WL_UNIT = A
_WL1 = 1.5406
_WL2 = 1.54439
_WL3 = 1.39222
_WLRATIO = 0.5
_ANODE = Cu
_V4_INF_CREATOR = XRDWizard
_V4_INF_CREATOR_VERSION = V2.9.0.22
_V4_INF_WIZARD_VERSION = V2.9.0.22
_V4_INF_WIZARD_ADDINS = V2.9.0.22
_V4_INF_WIZARD_DOCTYPE = XRD
_V4_INF_OSUSER = McQueenLab
_V4_INF_USER = Administrator
_V4_INF_SITE = USA
_V4_INF_SAMPLEID = ML_20220721_36_SJD_0_LaB6-4min

; Data for range 1
_DRIVE = COUPLED
_STEPTIME = 11.28
_STEPSIZE = 0.0185756
_STEPMODE = C
_START = 5
_THETA = 2.5
_2THETA = 5
_KHI = 0
_PHI = 0
_X = 0
_Y = 0
_Z = 0
_DETECTOR = 5
; Detector type : Unknown
_DETECTORSLIT = unkn
_AUX1 = 0
_AUX2 = 0
_AUX3 = 0
_TIMESTARTED = 15
_TEMP_RATE = -1
_TEMP_DELAY = -1
_KV = 40
_MA = 40
_RANGE_WL = 1.5406
_3DPLANE = 0
_V4_ADDITIONALDETECTOR = 257
_V4_PSD2THETA = 3.3675
_V4_PSDCHANNEL1 = 0
_V4_PSDAPERTURE = 12.68
_V4_PSDTYPE = 5
_V4_PSDFIXED = 0
_V4_COUNTERS_MASK = 4096
_V4_DRIVES_MASK = 0
_V4_ENCODERS_MASK = 0
_2THETACOUNTS = 1
; 2THETA  PSD
   5.0000        275
   5.0186        268
   5.0372        263
   5.0557        298
   5.0743        267
   5.0929        269
   5.1115        249
   5.1300        267
   5.1486        282
   5.1672        253
   5.1858        275
   5.2043        259
   5.2229        228
   5.2415        234
   5.2601        237
   5.2786        244
   5.2972        249
   5.3158        228
   5.3344        267
   5.3529        230
   5.3715        207
   5.3901        244
   5.4087        208
   5.4272        253
   5.4458        216
   5.4644        241
   5.4830        261
   5.5015        223
   5.5201        227
   5.5387        231
   5.5573        222
   5.5758        222
   5.5944        216
   5.6130        219
   5.6316        200
   5.6501        230
   5.6687        224
   5.6873        237
   5.7059        223
   5.7244        229
   5.7430        197
   5.7616        237
   5.7802        224
   5.7988        227
   5.8173        223
   5.8359        231
   5.8545        213
   5.8731        213
   5.8916        220
   5.9102        201
   5.9288        209
   5.9474        181
   5.9659        210
   5.9845        204
   6.0031        200
   6.0217        199
   6.0402        200
   6.0588        206
   6.0774        193
   6.0960        189
   6.1145        219
   6.1331        176
   6.1517        202
   6.1703        187
   6.1888        183
   6.2074        207
   6.2260        205
   6.2446        197
   6.2631        194
   6.2817        182
   6.3003        198
   6.3189        201
   6.3374        184
   6.3560        175
   6.3746        195
   6.3932        175
   6.4117        180
   6.4303        189
   6.4489        178
   6.4675        215
   6.4860        187
   6.5046        165
   6.5232        165
   6.5418        187
   6.5604        180
   6.5789        174
   6.5975        193
   6.6161        192
   6.6347        191
   6.6532        173
   6.6718        184
   6.6904        184
   6.7090        179
   6.7275        175
   6.7461        153
   6.7647        172
   6.7833        171
   6.8018        196
   6.8204        183
   6.8390        155
   6.8576        157
   6.8761        180
   6.8947        152
   6.9133        156
   6.9319        163
   6.9504        158
   6.9690        160
   6.9876        158
   7.0062        140
   7.0247        165
   7.0433        156
   7.0619        166
   7.0805        150
   7.0990        159
   7.1176        159
   7.1362        150
   7.1548        172
   7.1733        170
   7.1919        151
   7.2105        144
   7.2291        158
   7.2476        162
   7.2662        149
   7.2848        152
   7.3034        165
   7.3220        148
   7.3405        136
   7.3591        147
   7.3777        157
   7.3963        151
   7.4148        181
   7.4334        163
   7.4520        162
   7.4706        156
   7.4891        180
   7.5077        143
   7.5263        171
   7.5449        165
   7.5634        173
   7.5820        177
   7.6006        163
   7.6192        178
   7.6377        177
   7.6563        186
   7.6749        164
   7.6935        164
   7.7120        208
   7.7306        178
   7.7492        194
   7.7678        169
   7.7863        170
   7.8049        192
   7.8235        193
   7.8421        174
   7.8606        201
   7.8792        185
   7.8978        180
   7.9164        151
   7.9349        183
   7.9535        193
   7.9721        195
   7.9907        192
   8.0092        183
   8.0278        188
   8.0464        196
   8.0650        180
   8.0835        179
   8.1021        184
   8.1207        231
   8.1393        195
   8.1579        166
   8.1764        197
   8.1950        218
   8.2136        187
   8.2322        188
   8.2507        178
   8.2693        197
   8.2879        214
   8.3065        196
   8.3250        198
   8.3436        210
   8.3622        197
   8.3808        199
   8.3993        192
   8.4179        183
   8.4365        199
   8.4551        190
   8.4736        193
   8.4922        233
   8.5108        185
   8.5294        190
   8.5479        177
   8.5665        194
   8.5851        196
   8.6037        194
   8.6222        178
   8.6408        211
   8.6594        189
   8.6780        245
   8.6965        217
   8.7151        210
   8.7337        208
   8.7523        191
   8.7708        201
   8.7894        194
   8.8080        229
   8.8266        191
   8.8451        220
   8.8637        235
   8.8823        225
   8.9009        213
   8.9195        214
   8.9380        230
   8.9566        226
   8.9752        237
   8.9938        214
   9.0123        215
   9.0309        225
   9.0495        206
   9.0681        219
   9.0866        218
   9.1052        209
   9.1238        195
   9.1424        181
   9.1609        195
   9.1795        197
   9.1981        216
   9.2167        220
   9.2352        220
   9.2538        193
   9.2724        221
   9.2910        235
   9.3095        214
   9.3281        209
   9.3467        211
   9.3653        237
   9.3838        227
   9.4024        204
   9.4210        217
   9.4396        214
   9.4581        212
   9.4767        266
   9.4953        222
   9.5139        231
   9.5324        213
   9.5510        247
   9.5696        227
   9.5882        219
   9.6067        230
   9.6253        224
   9.6439        235
   9.6625        227
   9.6811        200
   9.6996        240
   9.7182        252
   9.7368        221
   9.7554        216
   9.7739        258
   9.7925        251
   9.8111        247
   9.8297        247
   9.8482        235
   9.8668        252
   9.8854        247
   9.9040        221
   9.9225        237
   9.9411        223
   9.9597        225
   9.9783        253
   9.9968        219
  10.0154        233
  10.0340        241
  10.0526        235
  10.0711        246
  10.0897        229
  10.1083        248
  10.1269        255
  10.1454        268
  10.1640        241
  10.1826        221
  10.2012        233
  10.2197        240
  10.2383        240
  10.2569        254
  10.2755        243
  10.2940        221
  10.3126        239
  10.3312        241
  10.3498        248
  10.3683        239
  10.3869        226
  10.4055        259
  10.4241        247
  10.4427        239
  10.4612        256
  10.4798        250
  10.4984        229
  10.5170        262
  10.5355        254
  10.5541        241
  10.5727        235
  10.5913        230
  10.6098        233
  10.6284        233
  10.6470        268
  10.6656        256
  10.6841        243
  10.7027        247
  10.7213        238
  10.7399        219
  10.7584        275
  10.7770        233
  10.7956        239
  10.8142        249
  10.8327        222
  10.8513        235
  10.8699        233
  10.8885        251
  10.9070        226
  10.9256        234
  10.9442        234
  10.9628        241
  10.9813        241
  10.9999        288
  11.0185        221
  11.0371        234
  11.0556        235
  11.0742        235
  11.0928        246
  11.1114        247
  11.1299        240
  11.1485        252
  11.1671        228
  11.1857        232
  11.2043        232
  11.2228        235
  11.2414        255
  11.2600        243
  11.2786        227
  11.2971        221
  11.3157        220
  11.3343        244
  11.3529        243
  11.3714        259
  11.3900        222
  11.4086        249
  11.4272        203
  11.4457        225
  11.4643        230
  11.4829        246
  11.5015        222
  11.5200        244
  11.5386        271
  11.5572        257
  11.5758        245
  11.5943        214
  11.6129        253
  11.6315        231
  11.6501        245
  11.6686        222
  11.6872        221
  11.7058        198
  11.7244        232
  11.7429        230
  11.7615        222
  11.7801        224
  11.7987        244
  11.8172        227
  11.8358        221
  11.8544        240
  11.8730        234
  11.8915        222
  11.9101        237
  11.9287        242
  11.9473        229
  11.9659        213
  11.9844        238
  12.0030        209
  12.0216        239
  12.0402        260
  12.0587        233
  12.0773        229
  12.0959        226
  12.1145        201
  12.1330        210
  12.1516        228
  12.1702        223
  12.1888        223
  12.2073        216
  12.2259        237
  12.2445        221
  12.2631        206
  12.2816        253
  12.3002        225
  12.3188        195
  12.3374        215
  12.3559        204
  12.3745        218
  12.3931        234
  12.4117        211
  12.4302        230
  12.4488        231
  12.4674        241
  12.4860        238
  12.5045        214
  12.5231        209
  12.5417        216
  12.5603        219
  12.5788        208
  12.5974        223
  12.6160        194
  12.6346        182
  12.6531        213
  12.6717        217
  12.6903        206
  12.7089        212
  12.7274        192
  12.7460        223
  12.7646        201
  12.7832        193
  12.8018        190
  12.8203        208
  12.8389        220
  12.8575        223
  12.8761        199
  12.8946        193
  12.9132        207
  12.9318        190
  12.9504        195
  12.9689        216
  12.9875        220
  13.0061        194
  13.0247        219
  13.0432        212
  13.0618        208
  13.0804        201
  13.0990        217
  13.1175        188
  13.1361        204
  13.1547        198
  13.1733        185
  13.1918        196
  13.2104        226
  13.2290        196
  13.2476        209
  13.2661        211
  13.2847        207
  13.3033        202
  13.3219        220
  13.3404        179
  13.3590        196
  13.3776        193
  13.3962        184
  13.4147        177
  13.4333        197
  13.4519        192
  13.4705        193
  13.4890        214
  13.5076        218
  13.5262        190
  13.5448        215
  13.5634        185
  13.5819        198
  13.6005        183
  13.6191        211
  13.6377        192
  13.6562        182
  13.6748        183
  13.6934        163
  13.7120        187
  13.7305        189
  13.7491        202
  13.7677        195
  13.7863        198
  13.8048        176
  13.8234        187
  13.8420        202
  13.8606        208
  13.8791        197
  13.8977        190
  13.9163        194
  13.9349        199
  13.9534        206
  13.9720        184
  13.9906        170
  14.0092        190
  14.0277        182
  14.0463        173
  14.0649        175
  14.0835        168
  14.1020        170
  14.1206        179
  14.1392        163
  14.1578        187
  14.1763        182
  14.1949        194
  14.2135        161
  14.2321        170
  14.2506        180
  14.2692        204
  14.2878        177
  14.3064        182
  14.3250        179
  14.3435        167
  14.3621        179
  14.3807        197
  14.3993        163
  14.4178        173
  14.4364        176
  14.4550        168
  14.4736        186
  14.4921        199
  14.5107        189
  14.5293        160
  14.5479        166
  14.5664        161
  14.5850        176
  14.6036        175
  14.6222        181
  14.6407        162
  14.6593        170
  14.6779        162
  14.6965        145
  14.7150        176
  14.7336        176
  14.7522        178
  14.7708        166
  14.7893        188
  14.8079        209
  14.8265        169
  14.8451        165
  14.8636        167
  14.8822        168
  14.9008        163
  14.9194        169
  14.9379        172
  14.9565        168
  14.9751        181
  14.9937        170
  15.0122        163
  15.0308        174
  15.0494        168
  15.0680        172
  15.0866        168
  15.1051        125
  15.1237        184
  15.1423        161
  15.1609        168
  15.1794        172
  15.1980        174
  15.2166        164
  15.2352        149
  15.2537        178
  15.2723        165
  15.2909        161
  15.3095        156
  15.3280        145
  15.3466        166
  15.3652        167
  15.3838        164
  15.4023        166
  15.4209        181
  15.4395        180
  15.4581        166
  15.4766        162
  15.4952        178
  15.5138        166
  15.5324        144
  15.5509        156
  15.5695        166
  15.5881        188
  15.6067        171
  15.6252        144
  15.6438        134
  15.6624        184
  15.6810        162
  15.6995        182
  15.7181        174
  15.7367        165
  15.7553        171
  15.7738        201
  15.7924        148
  15.8110        173
  15.8296        164
  15.8482        159
  15.8667        167
  15.8853        180
  15.9039        156
  15.9225        150
  15.9410        173
  15.9596        155
  15.9782        165
  15.9968        157
  16.0153        159
  16.0339        159
  16.0525        176
  16.0711        175
  16.0896        174
  16.1082        151
  16.1268        154
  16.1454        173
  16.1639        163
  16.1825        159
  16.2011        134
  16.2197        144
  16.2382        169
  16.2568        145
  16.2754        138
  16.2940        154
  16.3125        157
  16.3311        155
  16.3497        168
  16.3683        161
  16.3868        153
  16.4054        163
  16.4240        146
  16.4426        170
  16.4611        179
  16.4797        142
  16.4983        158
  16.5169        142
  16.5354        173
  16.5540        152
  16.5726        174
  16.5912        140
  16.6097        191
  16.6283        159
  16.6469        153
  16.6655        176
  16.6841        169
  16.7026        161
  16.7212        171
  16.7398        173
  16.7584        156
  16.7769        159
  16.7955        158
  16.8141        147
  16.8327        164
  16.8512        170
  16.8698        158
  16.8884        148
  16.9070        152
  16.9255        153
  16.9441        169
  16.9627        150
  16.9813        162
  16.9998        155
  17.0184        193
  17.0370        167
  17.0556        169
  17.0741        166
  17.0927        167
  17.1113        153
  17.1299        178
  17.1484        174
  17.1670        166
  17.1856        164
  17.2042        159
  17.2227        151
  17.2413        150
  17.2599        171
  17.2785        166
  17.2970        163
  17.3156        161
  17.3342        140
  17.3528        181
  17.3713        138
  17.3899        156
  17.4085        164
  17.4271        143
  17.4457        168
  17.4642        171
  17.4828        155
  17.5014        173
  17.5200        173
  17.5385        150
  17.5571        180
  17.5757        185
  17.5943        166
  17.6128        120
  17.6314        164
  17.6500        138
  17.6686        129
  17.6871        177
  17.7057        170
  17.7243        174
  17.7429        149
  17.7614        152
  17.7800        188
  17.7986        173
  17.8172        175
  17.8357        156
  17.8543        167
  17.8729        179
  17.8915        152
  17.9100        170
  17.9286        165
  17.9472        154
  17.9658        178
  17.9843        171
  18.0029        180
  18.0215        150
  18.0401        161
  18.0586        157
  18.0772        150
  18.0958        154
  18.1144        181
  18.1329        182
  18.1515        155
  18.1701        177
  18.1887        141
  18.2073        188
  18.2258        163
  18.2444        144
  18.2630        123
  18.2816        165
  18.3001        174
  18.3187        157
  18.3373        150
  18.3559        158
  18.3744        173
  18.3930        163
  18.4116        165
  18.4302        161
  18.4487        165
  18.4673        174
  18.4859        168
  18.5045        172
  18.5230        177
  18.5416        186
  18.5602        170
  18.5788        156
  18.5973        158
  18.6159        149
  18.6345        160
  18.6531        164
  18.6716        146
  18.6902        149
  18.7088        170
  18.7274        171
  18.7459        154
  18.7645        188
  18.7831        151
  18.8017        167
  18.8202        166
  18.8388        175
  18.8574        171
  18.8760        180
  18.8945        175
  18.9131        170
  18.9317        175
  18.9503        175
  18.9689        172
  18.9874        164
  19.0060        168
  19.0246        153
  19.0432        174
  19.0617        181
  19.0803        153
  19.0989        191
  19.1175        186
  19.1360        137
  19.1546        148
  19.1732        186
  19.1918        150
  19.2103        179
  19.2289        194
  19.2475        197
  19.2661        206
  19.2846        176
  19.3032        173
  19.3218        163
  19.3404        166
  19.3589        164
  19.3775        191
  19.3961        185
  19.4147        193
  19.4332        180
  19.4518        199
  19.4704        155
  19.4890        170
  19.5075        197
  19.5261        149
  19.5447        163
  19.5633        202
  19.5818        175
  19.6004        180
  19.6190        184
  19.6376        179
  19.6561        156
  19.6747        188
  19.6933        179
  19.7119        174
  19.7305        185
  19.7490        183
  19.7676        164
  19.7862        182
  19.8048        195
  19.8233        197
  19.8419        171
  19.8605        183
  19.8791        178
  19.8976        184
  19.9162        177
  19.9348        185
  19.9534        189
  19.9719        176
  19.9905        158
  20.0091        189
  20.0277        194
  20.0462        168
  20.0648        213
  20.0834        173
  20.1020        199
  20.1205        186
  20.1391        165
  20.1577        190
  20.1763        179
  20.1948        185
  20.2134        175
  20.2320        195
  20.2506        187
  20.2691        183
  20.2877        188
  20.3063        184
  20.3249        177
  20.3434        167
  20.3620        184
  20.3806        164
  20.3992        181
  20.4177        192
  20.4363        178
  20.4549        202
  20.4735        184
  20.4921        190
  20.5106        174
  20.5292        183
  20.5478        178
  20.5664        193
  20.5849        186
  20.6035        187
  20.6221        203
  20.6407        175
  20.6592        179
  20.6778        177
  20.6964        214
  20.7150        175
  20.7335        179
  20.7521        182
  20.7707        187
  20.7893        175
  20.8078        198
  20.8264        196
  20.8450        185
  20.8636        206
  20.8821        192
  20.9007        210
  20.9193        194
  20.9379        190
  20.9564        201
  20.9750        211
  20.9936        171
  21.0122        172
  21.0307        205
  21.0493        198
  21.0679        197
  21.0865        202
  21.1050        183
  21.1236        222
  21.1422        241
  21.1608        241
  21.1793        234
  21.1979        277
  21.2165        307
  21.2351        345
  21.2537        310
  21.2722        294
  21.2908        307
  21.3094        315
  21.3280        363
  21.3465        476
  21.3651        553
  21.3837        444
  21.4023        388
  21.4208        327
  21.4394        254
  21.4580        219
  21.4766        206
  21.4951        214
  21.5137        189
  21.5323        208
  21.5509        199
  21.5694        201
  21.5880        192
  21.6066        201
  21.6252        202
  21.6437        207
  21.6623        174
  21.6809        195
  21.6995        210
  21.7180        187
  21.7366        191
  21.7552        206
  21.7738        215
  21.7923        187
  21.8109        212
  21.8295        215
  21.8481        195
  21.8666        196
  21.8852        205
  21.9038        200
  21.9224        175
  21.9409        186
  21.9595        222
  21.9781        180
  21.9967        205
  22.0152        205
  22.0338        176
  22.0524        212
  22.0710        191
  22.0896        184
  22.1081        198
  22.1267        205
  22.1453        196
  22.1639        200
  22.1824        195
  22.2010        193
  22.2196        196
  22.2382        212
  22.2567        194
  22.2753        216
  22.2939        172
  22.3125        198
  22.3310        174
  22.3496        203
  22.3682        187
  22.3868        187
  22.4053        220
  22.4239        210
  22.4425        202
  22.4611        220
  22.4796        187
  22.4982        206
  22.5168        188
  22.5354        190
  22.5539        193
  22.5725        201
  22.5911        196
  22.6097        193
  22.6282        205
  22.6468        206
  22.6654        196
  22.6840        191
  22.7025        196
  22.7211        201
  22.7397        197
  22.7583        195
  22.7768        201
  22.7954        193
  22.8140        209
  22.8326        183
  22.8512        199
  22.8697        220
  22.8883        191
  22.9069        197
  22.9255        185
  22.9440        225
  22.9626        207
  22.9812        201
  22.9998        205
  23.0183        199
  23.0369        195
  23.0555        199
  23.0741        202
  23.0926        182
  23.1112        223
  23.1298        215
  23.1484        203
  23.1669        230
  23.1855        199
  23.2041        198
  23.2227        202
  23.2412        227
  23.2598        178
  23.2784        194
  23.2970        209
  23.3155        209
  23.3341        205
  23.3527        202
  23.3713        233
  23.3898        198
  23.4084        218
  23.4270        213
  23.4456        192
  23.4641        205
  23.4827        205
  23.5013        189
  23.5199        198
  23.5384        187
  23.5570        195
  23.5756        206
  23.5942        201
  23.6128        228
  23.6313        195
  23.6499        197
  23.6685        220
  23.6871        169
  23.7056        218
  23.7242        207
  23.7428        194
  23.7614        216
  23.7799        193
  23.7985        211
  23.8171        211
  23.8357        186
  23.8542        214
  23.8728        174
  23.8914        220
  23.9100        199
  23.9285        208
  23.9471        216
  23.9657        207
  23.9843        198
  24.0028        197
  24.0214        200
  24.0400        226
  24.0586        222
  24.0771        203
  24.0957        215
  24.1143        203
  24.1329        210
  24.1514        208
  24.1700        194
  24.1886        219
  24.2072        213
  24.2257        217
  24.2443        222
  24.2629        196
  24.2815        238
  24.3000        249
  24.3186        200
  24.3372        239
  24.3558        237
  24.3744        212
  24.3929        192
  24.4115        209
  24.4301        204
  24.4487        212
  24.4672        199
  24.4858        199
  24.5044        189
  24.5230        197
  24.5415        195
  24.5601        214
  24.5787        222
  24.5973        209
  24.6158        196
  24.6344        211
  24.6530        230
  24.6716        174
  24.6901        234
  24.7087        198
  24.7273        193
  24.7459        210
  24.7644        201
  24.7830        201
  24.8016        205
  24.8202        197
  24.8387        190
  24.8573        192
  24.8759        187
  24.8945        202
  24.9130        200
  24.9316        209
  24.9502        162
  24.9688        215
  24.9873        194
  25.0059        213
  25.0245        185
  25.0431        211
  25.0616        204
  25.0802        201
  25.0988        175
  25.1174        193
  25.1360        202
  25.1545        194
  25.1731        183
  25.1917        208
  25.2103        190
  25.2288        223
  25.2474        206
  25.2660        211
  25.2846        197
  25.3031        199
  25.3217        199
  25.3403        215
  25.3589        202
  25.3774        198
  25.3960        191
  25.4146        209
  25.4332        199
  25.4517        201
  25.4703        206
  25.4889        175
  25.5075        193
  25.5260        175
  25.5446        202
  25.5632        178
  25.5818        188
  25.6003        201
  25.6189        212
  25.6375        200
  25.6561        187
  25.6746        198
  25.6932        225
  25.7118        208
  25.7304        204
  25.7489        196
  25.7675        209
  25.7861        184
  25.8047        199
  25.8232        187
  25.8418        183
  25.8604        210
  25.8790        200
  25.8976        210
  25.9161        202
  25.9347        182
  25.9533        198
  25.9719        195
  25.9904        227
  26.0090        192
  26.0276        209
  26.0462        201
  26.0647        180
  26.0833        214
  26.1019        213
  26.1205        189
  26.1390        195
  26.1576        191
  26.1762        184
  26.1948        209
  26.2133        194
  26.2319        200
  26.2505        191
  26.2691        203
  26.2876        184
  26.3062        184
  26.3248        194
  26.3434        225
  26.3619        187
  26.3805        171
  26.3991        204
  26.4177        197
  26.4362        196
  26.4548        163
  26.4734        198
  26.4920        205
  26.5105        193
  26.5291        181
  26.5477        182
  26.5663        187
  26.5848        221
  26.6034        200
  26.6220        182
  26.6406        173
  26.6591        186
  26.6777        172
  26.6963        185
  26.7149        215
  26.7335        181
  26.7520        179
  26.7706        199
  26.7892        177
  26.8078        171
  26.8263        197
  26.8449        201
  26.8635        178
  26.8821        157
  26.9006        185
  26.9192        184
  26.9378        202
  26.9564        186
  26.9749        164
  26.9935        204
  27.0121        202
  27.0307        197
  27.0492        190
  27.0678        205
  27.0864        195
  27.1050        205
  27.1235        199
  27.1421        210
  27.1607        222
  27.1793        202
  27.1978        264
  27.2164        257
  27.2350        220
  27.2536        225
  27.2721        218
  27.2907        215
  27.3093        231
  27.3279        177
  27.3464        230
  27.3650        198
  27.3836        175
  27.4022        182
  27.4207        165
  27.4393        198
  27.4579        158
  27.4765        187
  27.4951        185
  27.5136        200
  27.5322        204
  27.5508        191
  27.5694        169
  27.5879        190
  27.6065        171
  27.6251        187
  27.6437        189
  27.6622        168
  27.6808        181
  27.6994        199
  27.7180        168
  27.7365        192
  27.7551        177
  27.7737        166
  27.7923        185
  27.8108        184
  27.8294        170
  27.8480        180
  27.8666        182
  27.8851        185
  27.9037        182
  27.9223        169
  27.9409        199
  27.9594        190
  27.9780        186
  27.9966        148
  28.0152        174
  28.0337        164
  28.0523        152
  28.0709        194
  28.0895        184
  28.1080        172
  28.1266        162
  28.1452        157
  28.1638        160
  28.1823        176
  28.2009        156
  28.2195        172
  28.2381        188
  28.2567        150
  28.2752        161
  28.2938        166
  28.3124        185
  28.3310        170
  28.3495        173
  28.3681        141
  28.3867        149
  28.4053        155
  28.4238        151
  28.4424        199
  28.4610        173
  28.4796        168
  28.4981        168
  28.5167        173
  28.5353        187
  28.5539        164
  28.5724        180
  28.5910        176
  28.6096        179
  28.6282        165
  28.6467        163
  28.6653        163
  28.6839        176
  28.7025        153
  28.7210        164
  28.7396        175
  28.7582        167
  28.7768        176
  28.7953        164
  28.8139        162
  28.8325        168
  28.8511        153
  28.8696        165
  28.8882        170
  28.9068        152
  28.9254        153
  28.9439        147
  28.9625        174
  28.9811        156
  28.9997        179
  29.0183        153
  29.0368        175
  29.0554        170
  29.0740        152
  29.0926        155
  29.1111        157
  29.1297        164
  29.1483        162
  29.1669        151
  29.1854        196
  29.2040        148
  29.2226        150
  29.2412        151
  29.2597        134
  29.2783        168
  29.2969        154
  29.3155        165
  29.3340        153
  29.3526        183
  29.3712        171
  29.3898        155
  29.4083        160
  29.4269        177
  29.4455        157
  29.4641        144
  29.4826        176
  29.5012        152
  29.5198        155
  29.5384        162
  29.5569        179
  29.5755        134
  29.5941        152
  29.6127        177
  29.6312        159
  29.6498        148
  29.6684        144
  29.6870        135
  29.7055        158
  29.7241        171
  29.7427        165
  29.7613        175
  29.7799        141
  29.7984        163
  29.8170        166
  29.8356        170
  29.8542        138
  29.8727        162
  29.8913        161
  29.9099        161
  29.9285        157
  29.9470        144
  29.9656        145
  29.9842        153
  30.0028        128
  30.0213        157
  30.0399        174
  30.0585        155
  30.0771        190
  30.0956        166
  30.1142        146
  30.1328        160
  30.1514        163
  30.1699        148
  30.1885        182
  30.2071        174
  30.2257        174
  30.2442        142
  30.2628        159
  30.2814        168
  30.3000        185
  30.3185        167
  30.3371        175
  30.3557        258
  30.3743        299
  30.3928        329
  30.4114        271
  30.4300        201
  30.4486        247
  30.4671        268
  30.4857        213
  30.5043        179
  30.5229        168
  30.5415        155
  30.5600        138
  30.5786        165
  30.5972        167
  30.6158        156
  30.6343        148
  30.6529        165
  30.6715        163
  30.6901        130
  30.7086        157
  30.7272        131
  30.7458        129
  30.7644        140
  30.7829        155
  30.8015        170
  30.8201        143
  30.8387        174
  30.8572        155
  30.8758        153
  30.8944        142
  30.9130        138
  30.9315        150
  30.9501        110
  30.9687        145
  30.9873        135
  31.0058        142
  31.0244        151
  31.0430        142
  31.0616        136
  31.0801        120
  31.0987        140
  31.1173        153
  31.1359        150
  31.1544        165
  31.1730        146
  31.1916        145
  31.2102        135
  31.2287        144
  31.2473        126
  31.2659        138
  31.2845        138
  31.3030        160
  31.3216        148
  31.3402        122
  31.3588        131
  31.3774        143
  31.3959        142
  31.4145        135
  31.4331        145
  31.4517        159
  31.4702        143
  31.4888        132
  31.5074        134
  31.5260        138
  31.5445        138
  31.5631        157
  31.5817        128
  31.6003        136
  31.6188        130
  31.6374        154
  31.6560        133
  31.6746        135
  31.6931        153
  31.7117        119
  31.7303        121
  31.7489        122
  31.7674        127
  31.7860        152
  31.8046        124
  31.8232        120
  31.8417        153
  31.8603        163
  31.8789        133
  31.8975        134
  31.9160        128
  31.9346        151
  31.9532        132
  31.9718        138
  31.9903        146
  32.0089        120
  32.0275        160
  32.0461        126
  32.0646        150
  32.0832        149
  32.1018        137
  32.1204        156
  32.1390        134
  32.1575        172
  32.1761        131
  32.1947        136
  32.2133        131
  32.2318        142
  32.2504        120
  32.2690        133
  32.2876        138
  32.3061        137
  32.3247        136
  32.3433        135
  32.3619        134
  32.3804        134
  32.3990        145
  32.4176        142
  32.4362        142
  32.4547        151
  32.4733        158
  32.4919        149
  32.5105        163
  32.5290        127
  32.5476        141
  32.5662        131
  32.5848        139
  32.6033        152
  32.6219        124
  32.6405        134
  32.6591        112
  32.6776        121
  32.6962        127
  32.7148        127
  32.7334        123
  32.7519        131
  32.7705        127
  32.7891        140
  32.8077        138
  32.8262        132
  32.8448        115
  32.8634        140
  32.8820        120
  32.9006        129
  32.9191        130
  32.9377        138
  32.9563        132
  32.9749        117
  32.9934        113
  33.0120        108
  33.0306        121
  33.0492        114
  33.0677        128
  33.0863        125
  33.1049        103
  33.1235        122
  33.1420        119
  33.1606        124
  33.1792        140
  33.1978        124
  33.2163        123
  33.2349        130
  33.2535        127
  33.2721        105
  33.2906        108
  33.3092        129
  33.3278        141
  33.3464        127
  33.3649        135
  33.3835         89
  33.4021        111
  33.4207        128
  33.4392        132
  33.4578        128
  33.4764        126
  33.4950        126
  33.5135        137
  33.5321        106
  33.5507        137
  33.5693        117
  33.5878        121
  33.6064        115
  33.6250        117
  33.6436        119
  33.6622        117
  33.6807        104
  33.6993        100
  33.7179        107
  33.7365        117
  33.7550        117
  33.7736        110
  33.7922        105
  33.8108        104
  33.8293        133
  33.8479        104
  33.8665        105
  33.8851        117
  33.9036        121
  33.9222        110
  33.9408         94
  33.9594        106
  33.9779        119
  33.9965        108
  34.0151        127
  34.0337        127
  34.0522        125
  34.0708        129
  34.0894        121
  34.1080        115
  34.1265        128
  34.1451        138
  34.1637        112
  34.1823        128
  34.2008        111
  34.2194         93
  34.2380        113
  34.2566        106
  34.2751        112
  34.2937         92
  34.3123        108
  34.3309        120
  34.3494        117
  34.3680        117
  34.3866        119
  34.4052        123
  34.4238        113
  34.4423        117
  34.4609         99
  34.4795        119
  34.4981        120
  34.5166         90
  34.5352        124
  34.5538        123
  34.5724        110
  34.5909        126
  34.6095        121
  34.6281        129
  34.6467        134
  34.6652        137
  34.6838        121
  34.7024        140
  34.7210        148
  34.7395        131
  34.7581        183
  34.7767        167
  34.7953        156
  34.8138        139
  34.8324        162
  34.8510        137
  34.8696        130
  34.8881        121
  34.9067        118
  34.9253        122
  34.9439        111
  34.9624        133
  34.9810        113
  34.9996        115
  35.0182        113
  35.0367        100
  35.0553        107
  35.0739         94
  35.0925        127
  35.1110        107
  35.1296        114
  35.1482         97
  35.1668         95
  35.1854        100
  35.2039         93
  35.2225        100
  35.2411        100
  35.2597        106
  35.2782        104
  35.2968        104
  35.3154         96
  35.3340        104
  35.3525        105
  35.3711        114
  35.3897        103
  35.4083         91
  35.4268        105
  35.4454        100
  35.4640        122
  35.4826         97
  35.5011        109
  35.5197         85
  35.5383        107
  35.5569        119
  35.5754        106
  35.5940        104
  35.6126         91
  35.6312        114
  35.6497        111
  35.6683        106
  35.6869         99
  35.7055        119
  35.7240        107
  35.7426         83
  35.7612        100
  35.7798         98
  35.7983         85
  35.8169         88
  35.8355         88
  35.8541         91
  35.8726        108
  35.8912         96
  35.9098        104
  35.9284        103
  35.9469         98
  35.9655        111
  35.9841         94
  36.0027        111
  36.0213        113
  36.0398        102
  36.0584        101
  36.0770         89
  36.0956         97
  36.1141         95
  36.1327         85
  36.1513        121
  36.1699        118
  36.1884        123
  36.2070         94
  36.2256         85
  36.2442         97
  36.2627         96
  36.2813         93
  36.2999        115
  36.3185        114
  36.3370         83
  36.3556         95
  36.3742         93
  36.3928        106
  36.4113         98
  36.4299         97
  36.4485         97
  36.4671         96
  36.4856        104
  36.5042        112
  36.5228         98
  36.5414         99
  36.5599         92
  36.5785        108
  36.5971         77
  36.6157         91
  36.6342         80
  36.6528         92
  36.6714         89
  36.6900         89
  36.7085        105
  36.7271        104
  36.7457         81
  36.7643         89
  36.7829         94
  36.8014         92
  36.8200         93
  36.8386         85
  36.8572         90
  36.8757        103
  36.8943         92
  36.9129         77
  36.9315         98
  36.9500         94
  36.9686        104
  36.9872         87
  37.0058         85
  37.0243         89
  37.0429         88
  37.0615        107
  37.0801         99
  37.0986         80
  37.1172         99
  37.1358         93
  37.1544         80
  37.1729         85
  37.1915         87
  37.2101         87
  37.2287         95
  37.2472        107
  37.2658        103
  37.2844         81
  37.3030         93
  37.3215         91
  37.3401        104
  37.3587         88
  37.3773         94
  37.3958        119
  37.4144        133
  37.4330        160
  37.4516        147
  37.4701        122
  37.4887        118
  37.5073        120
  37.5259        123
  37.5445        116
  37.5630        129
  37.5816        126
  37.6002         68
  37.6188         94
  37.6373         99
  37.6559         96
  37.6745         91
  37.6931         82
  37.7116         89
  37.7302         98
  37.7488         99
  37.7674         93
  37.7859         98
  37.8045         83
  37.8231         90
  37.8417        100
  37.8602         96
  37.8788         89
  37.8974         82
  37.9160         72
  37.9345        106
  37.9531         93
  37.9717         74
  37.9903         94
  38.0088         99
  38.0274         79
  38.0460         86
  38.0646         90
  38.0831         91
  38.1017         88
  38.1203         86
  38.1389         88
  38.1574         93
  38.1760         87
  38.1946         71
  38.2132        106
  38.2317         93
  38.2503         89
  38.2689         83
  38.2875         82
  38.3061         85
  38.3246         81
  38.3432         93
  38.3618         69
  38.3804         88
  38.3989         95
  38.4175         78
  38.4361         88
  38.4547         92
  38.4732         81
  38.4918         94
  38.5104         70
  38.5290         90
  38.5475         95
  38.5661         86
  38.5847         95
  38.6033         83
  38.6218         84
  38.6404         73
  38.6590         96
  38.6776         84
  38.6961         88
  38.7147         96
  38.7333         91
  38.7519         92
  38.7704         77
  38.7890         85
  38.8076         65
  38.8262         82
  38.8447        100
  38.8633         83
  38.8819         74
  38.9005         93
  38.9190         88
  38.9376        109
  38.9562         98
  38.9748         83
  38.9933         88
  39.0119         79
  39.0305         83
  39.0491         90
  39.0677        106
  39.0862         83
  39.1048         83
  39.1234         91
  39.1420         76
  39.1605         83
  39.1791         91
  39.1977         88
  39.2163         75
  39.2348         73
  39.2534         73
  39.2720         82
  39.2906         80
  39.3091         92
  39.3277         87
  39.3463         87
  39.3649         62
  39.3834         72
  39.4020         63
  39.4206         76
  39.4392         87
  39.4577         83
  39.4763         73
  39.4949         81
  39.5135         90
  39.5320         82
  39.5506         71
  39.5692         70
  39.5878         75
  39.6063         72
  39.6249         73
  39.6435         75
  39.6621         65
  39.6806         79
  39.6992         73
  39.7178         78
  39.7364         77
  39.7549         82
  39.7735         81
  39.7921         91
  39.8107         95
  39.8293         71
  39.8478         65
  39.8664         72
  39.8850         80
  39.9036         63
  39.9221         72
  39.9407         77
  39.9593         77
  39.9779         72
  39.9964         80
  40.0150         80
  40.0336         75
  40.0522         95
  40.0707         84
  40.0893         71
  40.1079         82
  40.1265         86
  40.1450         74
  40.1636         76
  40.1822         72
  40.2008         66
  40.2193         77
  40.2379         85
  40.2565         85
  40.2751         89
  40.2936         87
  40.3122         85
  40.3308         91
  40.3494         75
  40.3679         74
  40.3865         76
  40.4051         81
  40.4237         96
  40.4422         80
  40.4608         76
  40.4794         71
  40.4980         79
  40.5165         69
  40.5351         63
  40.5537         93
  40.5723         83
  40.5908         90
  40.6094         61
  40.6280         74
  40.6466         87
  40.6652         66
  40.6837         81
  40.7023         84
  40.7209         72
  40.7395         65
  40.7580         61
  40.7766         84
  40.7952         89
  40.8138         73
  40.8323         73
  40.8509         85
  40.8695         78
  40.8881         80
  40.9066         67
  40.9252         88
  40.9438         89
  40.9624         69
  40.9809         70
  40.9995        114
  41.0181         78
  41.0367         71
  41.0552         79
  41.0738         80
  41.0924         81
  41.1110         79
  41.1295         86
  41.1481         79
  41.1667         75
  41.1853         94
  41.2038         79
  41.2224         85
  41.2410         92
  41.2596         96
  41.2781         83
  41.2967         90
  41.3153         78
  41.3339         87
  41.3524         67
  41.3710         77
  41.3896         83
  41.4082         84
  41.4268         77
  41.4453         73
  41.4639         87
  41.4825         94
  41.5011         78
  41.5196         83
  41.5382         95
  41.5568         67
  41.5754         85
  41.5939         79
  41.6125         80
  41.6311         67
  41.6497         54
  41.6682         87
  41.6868         67
  41.7054         83
  41.7240         79
  41.7425         69
  41.7611         80
  41.7797         79
  41.7983         74
  41.8168         82
  41.8354         85
  41.8540         88
  41.8726         80
  41.8911         77
  41.9097         69
  41.9283         70
  41.9469         98
  41.9654         79
  41.9840         75
  42.0026         88
  42.0212         75
  42.0397         68
  42.0583         84
  42.0769         78
  42.0955         82
  42.1140         84
  42.1326         74
  42.1512         76
  42.1698         58
  42.1884         66
  42.2069         66
  42.2255         69
  42.2441         84
  42.2627         52
  42.2812         77
  42.2998         72
  42.3184         60
  42.3370         72
  42.3555         72
  42.3741         72
  42.3927         83
  42.4113         66
  42.4298         75
  42.4484         72
  42.4670         91
  42.4856         74
  42.5041         85
  42.5227         68
  42.5413         66
  42.5599         72
  42.5784         77
  42.5970         61
  42.6156         84
  42.6342         72
  42.6527         71
  42.6713         69
  42.6899         73
  42.7085         74
  42.7270         81
  42.7456         85
  42.7642         80
  42.7828         64
  42.8013         74
  42.8199         88
  42.8385         62
  42.8571         86
  42.8756         80
  42.8942         88
  42.9128         78
  42.9314         70
  42.9500         65
  42.9685         71
  42.9871         73
  43.0057         72
  43.0243         68
  43.0428         86
  43.0614         81
  43.0800         61
  43.0986         66
  43.1171         70
  43.1357         87
  43.1543         65
  43.1729         75
  43.1914         93
  43.2100         86
  43.2286         89
  43.2472        100
  43.2657         89
  43.2843         82
  43.3029         79
  43.3215         85
  43.3400         90
  43.3586         82
  43.3772         93
  43.3958         88
  43.4143         67
  43.4329         80
  43.4515         74
  43.4701        113
  43.4886        131
  43.5072        134
  43.5258        138
  43.5444        101
  43.5629         70
  43.5815         79
  43.6001         84
  43.6187        104
  43.6372         99
  43.6558         96
  43.6744         70
  43.6930         67
  43.7116         65
  43.7301         64
  43.7487         62
  43.7673         69
  43.7859         84
  43.8044         62
  43.8230         70
  43.8416         86
  43.8602         71
  43.8787         68
  43.8973         75
  43.9159         77
  43.9345         90
  43.9530         80
  43.9716         76
  43.9902         66
  44.0088         78
  44.0273         72
  44.0459         88
  44.0645         77
  44.0831         75
  44.1016         79
  44.1202         83
  44.1388         59
  44.1574         54
  44.1759         71
  44.1945         67
  44.2131         69
  44.2317         81
  44.2502         71
  44.2688         60
  44.2874         76
  44.3060         78
  44.3245         72
  44.3431         72
  44.3617         80
  44.3803         82
  44.3988         79
  44.4174         73
  44.4360         76
  44.4546         78
  44.4732         79
  44.4917         75
  44.5103         81
  44.5289         85
  44.5475         84
  44.5660         74
  44.5846         88
  44.6032         77
  44.6218         65
  44.6403         87
  44.6589         80
  44.6775         81
  44.6961         72
  44.7146         77
  44.7332         65
  44.7518         74
  44.7704         78
  44.7889         87
  44.8075         82
  44.8261         80
  44.8447         77
  44.8632         72
  44.8818         69
  44.9004         70
  44.9190         83
  44.9375         54
  44.9561         66
  44.9747         51
  44.9933         62
  45.0118         84
  45.0304         77
  45.0490         73
  45.0676         79
  45.0861         86
  45.1047         55
  45.1233         73
  45.1419         76
  45.1604         79
  45.1790         73
  45.1976         68
  45.2162         59
  45.2347         85
  45.2533         65
  45.2719         55
  45.2905         83
  45.3091         75
  45.3276         64
  45.3462         81
  45.3648         71
  45.3834         73
  45.4019         61
  45.4205         78
  45.4391         79
  45.4577         71
  45.4762         65
  45.4948         88
  45.5134         81
  45.5320         60
  45.5505         56
  45.5691         80
  45.5877         80
  45.6063         72
  45.6248         60
  45.6434         64
  45.6620         79
  45.6806         58
  45.6991         70
  45.7177         69
  45.7363         72
  45.7549         61
  45.7734         78
  45.7920         72
  45.8106         68
  45.8292         69
  45.8477         64
  45.8663         71
  45.8849         67
  45.9035         58
  45.9220         52
  45.9406         57
  45.9592         71
  45.9778         77
  45.9963         68
  46.0149         52
  46.0335         61
  46.0521         58
  46.0707         60
  46.0892         76
  46.1078         69
  46.1264         56
  46.1450         67
  46.1635         72
  46.1821         63
  46.2007         72
  46.2193         65
  46.2378         74
  46.2564         63
  46.2750         72
  46.2936         71
  46.3121         67
  46.3307         47
  46.3493         60
  46.3679         62
  46.3864         55
  46.4050         50
  46.4236         83
  46.4422         73
  46.4607         69
  46.4793         57
  46.4979         68
  46.5165         64
  46.5350         68
  46.5536         57
  46.5722         61
  46.5908         65
  46.6093         58
  46.6279         61
  46.6465         60
  46.6651         66
  46.6836         66
  46.7022         53
  46.7208         74
  46.7394         82
  46.7579         81
  46.7765         58
  46.7951         81
  46.8137         69
  46.8323         75
  46.8508         60
  46.8694         69
  46.8880         62
  46.9066         58
  46.9251         75
  46.9437         71
  46.9623         45
  46.9809         59
  46.9994         58
  47.0180         70
  47.0366         65
  47.0552         76
  47.0737         66
  47.0923         59
  47.1109         58
  47.1295         70
  47.1480         77
  47.1666         63
  47.1852         52
  47.2038         53
  47.2223         58
  47.2409         74
  47.2595         68
  47.2781         61
  47.2966         78
  47.3152         81
  47.3338         51
  47.3524         66
  47.3709         91
  47.3895         71
  47.4081         54
  47.4267         71
  47.4452         68
  47.4638         60
  47.4824         57
  47.5010         55
  47.5195         68
  47.5381         68
  47.5567         66
  47.5753         64
  47.5939         70
  47.6124         69
  47.6310         53
  47.6496         76
  47.6682         57
  47.6867         74
  47.7053         63
  47.7239         60
  47.7425         56
  47.7610         53
  47.7796         56
  47.7982         67
  47.8168         64
  47.8353         68
  47.8539         55
  47.8725         60
  47.8911         51
  47.9096         62
  47.9282         62
  47.9468         62
  47.9654         56
  47.9839         70
  48.0025         51
  48.0211         65
  48.0397         65
  48.0582         68
  48.0768         58
  48.0954         71
  48.1140         78
  48.1325         54
  48.1511         58
  48.1697         54
  48.1883         76
  48.2068         66
  48.2254         68
  48.2440         67
  48.2626         56
  48.2811         77
  48.2997         58
  48.3183         65
  48.3369         64
  48.3555         68
  48.3740         74
  48.3926         49
  48.4112         61
  48.4298         68
  48.4483         57
  48.4669         55
  48.4855         65
  48.5041         74
  48.5226         75
  48.5412         61
  48.5598         74
  48.5784         63
  48.5969         57
  48.6155         77
  48.6341         48
  48.6527         75
  48.6712         62
  48.6898         63
  48.7084         65
  48.7270         69
  48.7455         62
  48.7641         68
  48.7827         61
  48.8013         52
  48.8198         55
  48.8384         60
  48.8570         67
  48.8756         77
  48.8941         78
  48.9127         82
  48.9313         93
  48.9499        107
  48.9684        121
  48.9870        100
  49.0056         74
  49.0242         74
  49.0427         70
  49.0613         79
  49.0799        100
  49.0985         91
  49.1171         85
  49.1356         66
  49.1542         62
  49.1728         83
  49.1914         71
  49.2099         70
  49.2285         73
  49.2471         62
  49.2657         72
  49.2842         54
  49.3028         52
  49.3214         68
  49.3400         84
  49.3585         57
  49.3771         53
  49.3957         68
  49.4143         71
  49.4328         63
  49.4514         73
  49.4700         57
  49.4886         64
  49.5071         53
  49.5257         69
  49.5443         68
  49.5629         62
  49.5814         72
  49.6000         62
  49.6186         64
  49.6372         64
  49.6557         58
  49.6743         55
  49.6929         69
  49.7115         63
  49.7300         57
  49.7486         65
  49.7672         60
  49.7858         57
  49.8043         66
  49.8229         66
  49.8415         58
  49.8601         77
  49.8786         62
  49.8972         87
  49.9158         75
  49.9344         70
  49.9530         62
  49.9715         54
  49.9901         70
  50.0087         83
  50.0273         69
  50.0458         72
  50.0644         60
  50.0830         59
  50.1016         67
  50.1201         67
  50.1387         58
  50.1573         63
  50.1759         60
  50.1944         67
  50.2130         72
  50.2316         65
  50.2502         70
  50.2687         66
  50.2873         68
  50.3059         52
  50.3245         57
  50.3430         68
  50.3616         65
  50.3802         65
  50.3988         63
  50.4173         59
  50.4359         70
  50.4545         60
  50.4731         75
  50.4916         78
  50.5102         55
  50.5288         67
  50.5474         72
  50.5659         74
  50.5845         53
  50.6031         71
  50.6217         77
  50.6402         49
  50.6588         68
  50.6774         63
  50.6960         60
  50.7146         71
  50.7331         59
  50.7517         54
  50.7703         68
  50.7889         61
  50.8074         67
  50.8260         58
  50.8446         69
  50.8632         62
  50.8817         60
  50.9003         55
  50.9189         55
  50.9375         56
  50.9560         49
  50.9746         65
  50.9932         61
  51.0118         55
  51.0303         61
  51.0489         56
  51.0675         57
  51.0861         57
  51.1046         66
  51.1232         53
  51.1418         60
  51.1604         68
  51.1789         57
  51.1975         64
  51.2161         52
  51.2347         66
  51.2532         62
  51.2718         66
  51.2904         56
  51.3090         68
  51.3275         58
  51.3461         64
  51.3647         67
  51.3833         70
  51.4018         72
  51.4204         70
  51.4390         55
  51.4576         60
  51.4762         68
  51.4947         68
  51.5133         69
  51.5319         71
  51.5505         67
  51.5690         83
  51.5876         79
  51.6062         59
  51.6248         55
  51.6433         63
  51.6619         54
  51.6805         42
  51.6991         48
  51.7176         73
  51.7362         65
  51.7548         65
  51.7734         58
  51.7919         72
  51.8105         50
  51.8291         76
  51.8477         69
  51.8662         57
  51.8848         70
  51.9034         68
  51.9220         75
  51.9405         67
  51.9591         67
  51.9777         73
  51.9963         73
  52.0148         68
  52.0334         66
  52.0520         63
  52.0706         48
  52.0891         70
  52.1077         53
  52.1263         52
  52.1449         78
  52.1634         56
  52.1820         79
  52.2006         63
  52.2192         68
  52.2378         61
  52.2563         56
  52.2749         62
  52.2935         53
  52.3121         41
  52.3306         57
  52.3492         56
  52.3678         70
  52.3864         55
  52.4049         57
  52.4235         54
  52.4421         63
  52.4607         62
  52.4792         49
  52.4978         48
  52.5164         46
  52.5350         57
  52.5535         45
  52.5721         69
  52.5907         68
  52.6093         59
  52.6278         60
  52.6464         44
  52.6650         59
  52.6836         70
  52.7021         52
  52.7207         59
  52.7393         52
  52.7579         60
  52.7764         64
  52.7950         82
  52.8136         43
  52.8322         41
  52.8507         56
  52.8693         62
  52.8879         54
  52.9065         52
  52.9250         49
  52.9436         61
  52.9622         68
  52.9808         65
  52.9994         54
  53.0179         71
  53.0365         52
  53.0551         57
  53.0737         57
  53.0922         64
  53.1108         53
  53.1294         52
  53.1480         59
  53.1665         63
  53.1851         63
  53.2037         57
  53.2223         61
  53.2408         51
  53.2594         57
  53.2780         64
  53.2966         51
  53.3151         66
  53.3337         64
  53.3523         58
  53.3709         68
  53.3894         60
  53.4080         57
  53.4266         68
  53.4452         63
  53.4637         67
  53.4823         66
  53.5009         57
  53.5195         55
  53.5380         58
  53.5566         68
  53.5752         52
  53.5938         47
  53.6123         57
  53.6309         49
  53.6495         58
  53.6681         63
  53.6866         68
  53.7052         67
  53.7238         62
  53.7424         48
  53.7610         55
  53.7795         77
  53.7981         58
  53.8167         62
  53.8353         63
  53.8538         50
  53.8724         59
  53.8910         73
  53.9096         60
  53.9281         68
  53.9467         77
  53.9653         84
  53.9839         87
  54.0024         87
  54.0210         70
  54.0396         59
  54.0582         65
  54.0767         67
  54.0953         73
  54.1139         72
  54.1325         59
  54.1510         77
  54.1696         55
  54.1882         62
  54.2068         63
  54.2253         69
  54.2439         66
  54.2625         47
  54.2811         67
  54.2996         59
  54.3182         56
  54.3368         54
  54.3554         61
  54.3739         70
  54.3925         64
  54.4111         68
  54.4297         58
  54.4482         47
  54.4668         59
  54.4854         53
  54.5040         62
  54.5225         63
  54.5411         67
  54.5597         45
  54.5783         62
  54.5969         52
  54.6154         43
  54.6340         53
  54.6526         48
  54.6712         68
  54.6897         42
  54.7083         39
  54.7269         61
  54.7455         61
  54.7640         70
  54.7826         43
  54.8012         55
  54.8198         51
  54.8383         56
  54.8569         38
  54.8755         59
  54.8941         54
  54.9126         49
  54.9312         51
  54.9498         61
  54.9684         62
  54.9869         53
  55.0055         41
  55.0241         58
  55.0427         64
  55.0612         47
  55.0798         54
  55.0984         53
  55.1170         52
  55.1355         60
  55.1541         56
  55.1727         66
  55.1913         62
  55.2098         56
  55.2284         51
  55.2470         53
  55.2656         61
  55.2841         58
  55.3027         56
  55.3213         52
  55.3399         59
  55.3585         51
  55.3770         63
  55.3956         68
  55.4142         67
  55.4328         61
  55.4513         54
  55.4699         66
  55.4885         50
  55.5071         48
  55.5256         55
  55.5442         63
  55.5628         65
  55.5814         45
  55.5999         59
  55.6185         62
  55.6371         60
  55.6557         61
  55.6742         50
  55.6928         67
  55.7114         60
  55.7300         61
  55.7485         61
  55.7671         65
  55.7857         65
  55.8043         62
  55.8228         64
  55.8414         63
  55.8600         66
  55.8786         38
  55.8971         60
  55.9157         42
  55.9343         50
  55.9529         62
  55.9714         56
  55.9900         45
  56.0086         56
  56.0272         60
  56.0457         49
  56.0643         55
  56.0829         63
  56.1015         51
  56.1201         70
  56.1386         60
  56.1572         59
  56.1758         72
  56.1944         55
  56.2129         73
  56.2315         80
  56.2501         73
  56.2687         75
  56.2872         72
  56.3058         67
  56.3244         65
  56.3430         79
  56.3615         60
  56.3801         68
  56.3987         75
  56.4173         64
  56.4358         68
  56.4544         54
  56.4730         55
  56.4916         70
  56.5101         61
  56.5287         59
  56.5473         67
  56.5659         53
  56.5844         55
  56.6030         55
  56.6216         61
  56.6402         65
  56.6587         43
  56.6773         58
  56.6959         58
  56.7145         66
  56.7330         40
  56.7516         48
  56.7702         61
  56.7888         64
  56.8073         49
  56.8259         56
  56.8445         57
  56.8631         65
  56.8817         66
  56.9002         52
  56.9188         61
  56.9374         54
  56.9560         54
  56.9745         56
  56.9931         66
  57.0117         62
  57.0303         46
  57.0488         58
  57.0674         64
  57.0860         57
  57.1046         61
  57.1231         44
  57.1417         47
  57.1603         68
  57.1789         52
  57.1974         57
  57.2160         56
  57.2346         52
  57.2532         56
  57.2717         55
  57.2903         74
  57.3089         59
  57.3275         53
  57.3460         65
  57.3646         53
  57.3832         63
  57.4018         54
  57.4203         64
  57.4389         47
  57.4575         48
  57.4761         62
  57.4946         47
  57.5132         54
  57.5318         47
  57.5504         57
  57.5689         52
  57.5875         47
  57.6061         56
  57.6247         61
  57.6433         67
  57.6618         59
  57.6804         71
  57.6990         52
  57.7176         46
  57.7361         54
  57.7547         62
  57.7733         55
  57.7919         55
  57.8104         57
  57.8290         57
  57.8476         49
  57.8662         44
  57.8847         64
  57.9033         48
  57.9219         42
  57.9405         64
  57.9590         44
  57.9776         46
  57.9962         55
  58.0148         66
  58.0333         51
  58.0519         47
  58.0705         59
  58.0891         50
  58.1076         70
  58.1262         49
  58.1448         39
  58.1634         53
  58.1819         56
  58.2005         61
  58.2191         60
  58.2377         63
  58.2562         67
  58.2748         53
  58.2934         51
  58.3120         65
  58.3305         42
  58.3491         63
  58.3677         67
  58.3863         50
  58.4049         44
  58.4234         60
  58.4420         55
  58.4606         68
  58.4792         51
  58.4977         38
  58.5163         45
  58.5349         54
  58.5535         58
  58.5720         58
  58.5906         57
  58.6092         62
  58.6278         47
  58.6463         56
  58.6649         59
  58.6835         52
  58.7021         51
  58.7206         58
  58.7392         58
  58.7578         54
  58.7764         61
  58.7949         68
  58.8135         66
  58.8321         56
  58.8507         52
  58.8692         65
  58.8878         40
  58.9064         60
  58.9250         44
  58.9435         63
  58.9621         43
  58.9807         55
  58.9993         56
  59.0178         79
  59.0364         54
  59.0550         63
  59.0736         53
  59.0921         70
  59.1107         75
  59.1293         59
  59.1479         52
  59.1664         46
  59.1850         48
  59.2036         54
  59.2222         56
  59.2408         49
  59.2593         64
  59.2779         60
  59.2965         42
  59.3151         65
  59.3336         61
  59.3522         56
  59.3708         60
  59.3894         58
  59.4079         65
  59.4265         55
  59.4451         73
  59.4637         64
  59.4822         53
  59.5008         57
  59.5194         67
  59.5380         58
  59.5565         65
  59.5751         48
  59.5937         42
  59.6123         55
  59.6308         56
  59.6494         52
  59.6680         70
  59.6866         36
  59.7051         60
  59.7237         55
  59.7423         54
  59.7609         49
  59.7794         63
  59.7980         43
  59.8166         48
  59.8352         67
  59.8537         57
  59.8723         49
  59.8909         53
  59.9095         50
  59.9280         50
  59.9466         48
  59.9652         48
  59.9838         49
  60.0024         50
