; (content of file Y:\Sam\Apurva-07-20-2022\puck4\ML_20220718_40_SJD_4_LaB6-4min.raw)
_FILEVERSION = 3
_SAMPLE = ML_20220718_40_SJD_4_LaB6-4min
_+SAMPLE = 
_SITE = USA
_USER = Administrator
_GONIOMETER_CODE = 20
; Goniometer : D8 theta/2theta, stage : Unknown
_ATTACHMENTS_CODE = 0
_GONIOMETER_RADIUS = 200.5
_FIXED_DIVSLIT = 0.6
_FIXED_SAMPLESLIT = 0
_SOLLER_SLITS = 2
_FIXED_DETSLIT = 9.55
_MONOCHROMATOR = 0
; Incident beam monochromator : None
_SOLLER_SLITS_2 = N
_THIN_FILM = N
_BETA_FILTER = Y
_FIXED_ANTISLIT = 5.89
_ANALYZER_CODE = 0
; Received beam analyzer : None
_DATEMEASURED = "26-Jul-2022 13:16:01"
_WL_UNIT = A
_WL1 = 1.5406
_WL2 = 1.54439
_WL3 = 1.39222
_WLRATIO = 0.5
_ANODE = Cu
_V4_INF_CREATOR = XRDWizard
_V4_INF_CREATOR_VERSION = V2.9.0.22
_V4_INF_WIZARD_VERSION = V2.9.0.22
_V4_INF_WIZARD_ADDINS = V2.9.0.22
_V4_INF_WIZARD_DOCTYPE = XRD
_V4_INF_OSUSER = McQueenLab
_V4_INF_USER = Administrator
_V4_INF_SITE = USA
_V4_INF_SAMPLEID = ML_20220718_40_SJD_4_LaB6-4min

; Data for range 1
_DRIVE = COUPLED
_STEPTIME = 11.28
_STEPSIZE = 0.0185756
_STEPMODE = C
_START = 5
_THETA = 2.5
_2THETA = 5
_KHI = 0
_PHI = 0
_X = 0
_Y = 0
_Z = 0
_DETECTOR = 5
; Detector type : Unknown
_DETECTORSLIT = unkn
_AUX1 = 0
_AUX2 = 0
_AUX3 = 0
_TIMESTARTED = 16
_TEMP_RATE = -1
_TEMP_DELAY = -1
_KV = 40
_MA = 40
_RANGE_WL = 1.5406
_3DPLANE = 0
_V4_ADDITIONALDETECTOR = 257
_V4_PSD2THETA = 3.3661
_V4_PSDCHANNEL1 = 0
_V4_PSDAPERTURE = 12.68
_V4_PSDTYPE = 5
_V4_PSDFIXED = 0
_V4_COUNTERS_MASK = 4096
_V4_DRIVES_MASK = 0
_V4_ENCODERS_MASK = 0
_2THETACOUNTS = 1
; 2THETA  PSD
   5.0000        265
   5.0186        239
   5.0372        290
   5.0557        236
   5.0743        252
   5.0929        239
   5.1115        258
   5.1300        296
   5.1486        256
   5.1672        255
   5.1858        239
   5.2043        252
   5.2229        250
   5.2415        276
   5.2601        231
   5.2786        260
   5.2972        228
   5.3158        250
   5.3344        252
   5.3529        270
   5.3715        238
   5.3901        225
   5.4087        255
   5.4272        251
   5.4458        263
   5.4644        239
   5.4830        212
   5.5015        247
   5.5201        228
   5.5387        224
   5.5573        218
   5.5758        228
   5.5944        214
   5.6130        241
   5.6316        221
   5.6501        226
   5.6687        200
   5.6873        200
   5.7059        232
   5.7244        198
   5.7430        234
   5.7616        219
   5.7802        219
   5.7988        192
   5.8173        222
   5.8359        214
   5.8545        206
   5.8731        219
   5.8916        220
   5.9102        220
   5.9288        223
   5.9474        206
   5.9659        189
   5.9845        222
   6.0031        198
   6.0217        205
   6.0402        196
   6.0588        203
   6.0774        185
   6.0960        177
   6.1145        211
   6.1331        202
   6.1517        190
   6.1703        215
   6.1888        193
   6.2074        209
   6.2260        205
   6.2446        205
   6.2631        214
   6.2817        195
   6.3003        171
   6.3189        169
   6.3374        185
   6.3560        197
   6.3746        168
   6.3932        194
   6.4117        182
   6.4303        177
   6.4489        163
   6.4675        186
   6.4860        170
   6.5046        181
   6.5232        171
   6.5418        163
   6.5604        190
   6.5789        178
   6.5975        182
   6.6161        194
   6.6347        178
   6.6532        173
   6.6718        166
   6.6904        176
   6.7090        151
   6.7275        180
   6.7461        168
   6.7647        150
   6.7833        182
   6.8018        172
   6.8204        173
   6.8390        173
   6.8576        162
   6.8761        179
   6.8947        169
   6.9133        175
   6.9319        167
   6.9504        177
   6.9690        155
   6.9876        153
   7.0062        163
   7.0247        165
   7.0433        176
   7.0619        160
   7.0805        151
   7.0990        151
   7.1176        159
   7.1362        159
   7.1548        166
   7.1733        157
   7.1919        172
   7.2105        145
   7.2291        165
   7.2476        154
   7.2662        156
   7.2848        163
   7.3034        154
   7.3220        156
   7.3405        158
   7.3591        144
   7.3777        158
   7.3963        176
   7.4148        163
   7.4334        187
   7.4520        157
   7.4706        141
   7.4891        158
   7.5077        165
   7.5263        163
   7.5449        137
   7.5634        175
   7.5820        167
   7.6006        164
   7.6192        171
   7.6377        174
   7.6563        172
   7.6749        176
   7.6935        175
   7.7120        196
   7.7306        171
   7.7492        174
   7.7678        162
   7.7863        182
   7.8049        192
   7.8235        188
   7.8421        201
   7.8606        188
   7.8792        199
   7.8978        164
   7.9164        180
   7.9349        193
   7.9535        198
   7.9721        214
   7.9907        217
   8.0092        181
   8.0278        189
   8.0464        185
   8.0650        196
   8.0835        186
   8.1021        179
   8.1207        188
   8.1393        205
   8.1579        198
   8.1764        189
   8.1950        206
   8.2136        207
   8.2322        201
   8.2507        196
   8.2693        180
   8.2879        181
   8.3065        185
   8.3250        209
   8.3436        204
   8.3622        222
   8.3808        187
   8.3993        186
   8.4179        190
   8.4365        209
   8.4551        190
   8.4736        202
   8.4922        194
   8.5108        208
   8.5294        196
   8.5479        220
   8.5665        175
   8.5851        219
   8.6037        216
   8.6222        207
   8.6408        215
   8.6594        188
   8.6780        213
   8.6965        208
   8.7151        187
   8.7337        218
   8.7523        188
   8.7708        214
   8.7894        229
   8.8080        218
   8.8266        217
   8.8451        192
   8.8637        198
   8.8823        237
   8.9009        203
   8.9195        211
   8.9380        209
   8.9566        217
   8.9752        208
   8.9938        219
   9.0123        240
   9.0309        231
   9.0495        212
   9.0681        197
   9.0866        208
   9.1052        233
   9.1238        185
   9.1424        218
   9.1609        239
   9.1795        247
   9.1981        219
   9.2167        215
   9.2352        199
   9.2538        225
   9.2724        203
   9.2910        225
   9.3095        261
   9.3281        212
   9.3467        226
   9.3653        233
   9.3838        211
   9.4024        245
   9.4210        222
   9.4396        240
   9.4581        222
   9.4767        206
   9.4953        199
   9.5139        235
   9.5324        246
   9.5510        229
   9.5696        255
   9.5882        235
   9.6067        211
   9.6253        251
   9.6439        249
   9.6625        220
   9.6811        240
   9.6996        236
   9.7182        212
   9.7368        229
   9.7554        247
   9.7739        233
   9.7925        240
   9.8111        252
   9.8297        245
   9.8482        229
   9.8668        227
   9.8854        218
   9.9040        258
   9.9225        229
   9.9411        264
   9.9597        236
   9.9783        228
   9.9968        257
  10.0154        248
  10.0340        237
  10.0526        250
  10.0711        238
  10.0897        221
  10.1083        243
  10.1269        236
  10.1454        234
  10.1640        247
  10.1826        245
  10.2012        224
  10.2197        278
  10.2383        249
  10.2569        246
  10.2755        241
  10.2940        245
  10.3126        237
  10.3312        267
  10.3498        244
  10.3683        225
  10.3869        248
  10.4055        271
  10.4241        271
  10.4427        248
  10.4612        234
  10.4798        263
  10.4984        251
  10.5170        234
  10.5355        253
  10.5541        242
  10.5727        216
  10.5913        267
  10.6098        246
  10.6284        271
  10.6470        278
  10.6656        232
  10.6841        244
  10.7027        246
  10.7213        242
  10.7399        271
  10.7584        234
  10.7770        255
  10.7956        258
  10.8142        244
  10.8327        228
  10.8513        247
  10.8699        235
  10.8885        240
  10.9070        236
  10.9256        234
  10.9442        260
  10.9628        257
  10.9813        236
  10.9999        231
  11.0185        250
  11.0371        239
  11.0556        236
  11.0742        245
  11.0928        253
  11.1114        243
  11.1299        251
  11.1485        202
  11.1671        263
  11.1857        233
  11.2043        221
  11.2228        258
  11.2414        247
  11.2600        262
  11.2786        242
  11.2971        235
  11.3157        238
  11.3343        247
  11.3529        226
  11.3714        275
  11.3900        238
  11.4086        264
  11.4272        259
  11.4457        223
  11.4643        226
  11.4829        261
  11.5015        224
  11.5200        220
  11.5386        233
  11.5572        226
  11.5758        240
  11.5943        241
  11.6129        245
  11.6315        234
  11.6501        234
  11.6686        242
  11.6872        245
  11.7058        226
  11.7244        245
  11.7429        226
  11.7615        228
  11.7801        246
  11.7987        222
  11.8172        240
  11.8358        237
  11.8544        255
  11.8730        213
  11.8915        214
  11.9101        234
  11.9287        219
  11.9473        217
  11.9659        274
  11.9844        225
  12.0030        223
  12.0216        222
  12.0402        218
  12.0587        231
  12.0773        206
  12.0959        249
  12.1145        231
  12.1330        246
  12.1516        241
  12.1702        254
  12.1888        210
  12.2073        229
  12.2259        229
  12.2445        197
  12.2631        233
  12.2816        205
  12.3002        211
  12.3188        236
  12.3374        233
  12.3559        257
  12.3745        246
  12.3931        246
  12.4117        231
  12.4302        220
  12.4488        232
  12.4674        204
  12.4860        214
  12.5045        219
  12.5231        216
  12.5417        199
  12.5603        227
  12.5788        197
  12.5974        234
  12.6160        250
  12.6346        230
  12.6531        229
  12.6717        225
  12.6903        233
  12.7089        230
  12.7274        238
  12.7460        211
  12.7646        219
  12.7832        225
  12.8018        207
  12.8203        207
  12.8389        197
  12.8575        216
  12.8761        207
  12.8946        214
  12.9132        244
  12.9318        211
  12.9504        220
  12.9689        195
  12.9875        203
  13.0061        190
  13.0247        224
  13.0432        193
  13.0618        230
  13.0804        205
  13.0990        193
  13.1175        181
  13.1361        227
  13.1547        184
  13.1733        197
  13.1918        231
  13.2104        227
  13.2290        205
  13.2476        196
  13.2661        219
  13.2847        184
  13.3033        199
  13.3219        202
  13.3404        196
  13.3590        217
  13.3776        200
  13.3962        202
  13.4147        203
  13.4333        181
  13.4519        218
  13.4705        215
  13.4890        182
  13.5076        216
  13.5262        220
  13.5448        202
  13.5634        191
  13.5819        177
  13.6005        187
  13.6191        204
  13.6377        166
  13.6562        214
  13.6748        191
  13.6934        198
  13.7120        192
  13.7305        198
  13.7491        178
  13.7677        200
  13.7863        167
  13.8048        200
  13.8234        196
  13.8420        166
  13.8606        213
  13.8791        182
  13.8977        213
  13.9163        205
  13.9349        200
  13.9534        205
  13.9720        177
  13.9906        188
  14.0092        199
  14.0277        207
  14.0463        175
  14.0649        201
  14.0835        178
  14.1020        186
  14.1206        165
  14.1392        176
  14.1578        191
  14.1763        178
  14.1949        169
  14.2135        181
  14.2321        199
  14.2506        168
  14.2692        186
  14.2878        197
  14.3064        175
  14.3250        171
  14.3435        181
  14.3621        191
  14.3807        164
  14.3993        216
  14.4178        169
  14.4364        184
  14.4550        180
  14.4736        171
  14.4921        185
  14.5107        176
  14.5293        178
  14.5479        171
  14.5664        175
  14.5850        161
  14.6036        186
  14.6222        187
  14.6407        155
  14.6593        160
  14.6779        162
  14.6965        172
  14.7150        154
  14.7336        181
  14.7522        168
  14.7708        182
  14.7893        170
  14.8079        169
  14.8265        168
  14.8451        165
  14.8636        167
  14.8822        181
  14.9008        172
  14.9194        186
  14.9379        167
  14.9565        179
  14.9751        176
  14.9937        168
  15.0122        196
  15.0308        179
  15.0494        155
  15.0680        155
  15.0866        165
  15.1051        163
  15.1237        164
  15.1423        162
  15.1609        176
  15.1794        179
  15.1980        165
  15.2166        162
  15.2352        152
  15.2537        177
  15.2723        167
  15.2909        161
  15.3095        168
  15.3280        144
  15.3466        163
  15.3652        154
  15.3838        177
  15.4023        175
  15.4209        161
  15.4395        158
  15.4581        163
  15.4766        175
  15.4952        154
  15.5138        157
  15.5324        167
  15.5509        182
  15.5695        184
  15.5881        161
  15.6067        169
  15.6252        158
  15.6438        152
  15.6624        164
  15.6810        170
  15.6995        173
  15.7181        169
  15.7367        152
  15.7553        185
  15.7738        168
  15.7924        177
  15.8110        164
  15.8296        160
  15.8482        163
  15.8667        177
  15.8853        167
  15.9039        192
  15.9225        156
  15.9410        167
  15.9596        184
  15.9782        157
  15.9968        163
  16.0153        164
  16.0339        180
  16.0525        157
  16.0711        175
  16.0896        167
  16.1082        180
  16.1268        169
  16.1454        157
  16.1639        169
  16.1825        159
  16.2011        169
  16.2197        179
  16.2382        184
  16.2568        177
  16.2754        177
  16.2940        159
  16.3125        166
  16.3311        147
  16.3497        147
  16.3683        177
  16.3868        171
  16.4054        158
  16.4240        169
  16.4426        158
  16.4611        168
  16.4797        195
  16.4983        161
  16.5169        154
  16.5354        171
  16.5540        157
  16.5726        162
  16.5912        152
  16.6097        158
  16.6283        178
  16.6469        147
  16.6655        158
  16.6841        175
  16.7026        156
  16.7212        146
  16.7398        164
  16.7584        155
  16.7769        162
  16.7955        179
  16.8141        181
  16.8327        182
  16.8512        171
  16.8698        161
  16.8884        189
  16.9070        154
  16.9255        139
  16.9441        171
  16.9627        149
  16.9813        163
  16.9998        167
  17.0184        162
  17.0370        178
  17.0556        183
  17.0741        178
  17.0927        167
  17.1113        164
  17.1299        177
  17.1484        156
  17.1670        163
  17.1856        162
  17.2042        174
  17.2227        175
  17.2413        158
  17.2599        147
  17.2785        165
  17.2970        155
  17.3156        142
  17.3342        156
  17.3528        170
  17.3713        170
  17.3899        158
  17.4085        169
  17.4271        154
  17.4457        183
  17.4642        161
  17.4828        159
  17.5014        138
  17.5200        179
  17.5385        157
  17.5571        134
  17.5757        172
  17.5943        160
  17.6128        177
  17.6314        148
  17.6500        134
  17.6686        146
  17.6871        152
  17.7057        170
  17.7243        159
  17.7429        184
  17.7614        182
  17.7800        180
  17.7986        189
  17.8172        167
  17.8357        153
  17.8543        169
  17.8729        160
  17.8915        175
  17.9100        172
  17.9286        166
  17.9472        174
  17.9658        151
  17.9843        161
  18.0029        179
  18.0215        181
  18.0401        148
  18.0586        165
  18.0772        174
  18.0958        197
  18.1144        152
  18.1329        166
  18.1515        194
  18.1701        161
  18.1887        174
  18.2073        176
  18.2258        172
  18.2444        177
  18.2630        178
  18.2816        158
  18.3001        185
  18.3187        161
  18.3373        172
  18.3559        185
  18.3744        175
  18.3930        172
  18.4116        191
  18.4302        201
  18.4487        166
  18.4673        161
  18.4859        182
  18.5045        166
  18.5230        159
  18.5416        186
  18.5602        159
  18.5788        156
  18.5973        188
  18.6159        183
  18.6345        173
  18.6531        177
  18.6716        176
  18.6902        171
  18.7088        167
  18.7274        192
  18.7459        169
  18.7645        173
  18.7831        163
  18.8017        192
  18.8202        183
  18.8388        181
  18.8574        182
  18.8760        181
  18.8945        159
  18.9131        189
  18.9317        159
  18.9503        165
  18.9689        203
  18.9874        198
  19.0060        180
  19.0246        149
  19.0432        180
  19.0617        152
  19.0803        161
  19.0989        171
  19.1175        185
  19.1360        186
  19.1546        165
  19.1732        163
  19.1918        165
  19.2103        168
  19.2289        191
  19.2475        172
  19.2661        197
  19.2846        181
  19.3032        185
  19.3218        148
  19.3404        161
  19.3589        184
  19.3775        181
  19.3961        172
  19.4147        186
  19.4332        177
  19.4518        168
  19.4704        170
  19.4890        129
  19.5075        171
  19.5261        156
  19.5447        179
  19.5633        173
  19.5818        172
  19.6004        149
  19.6190        174
  19.6376        154
  19.6561        194
  19.6747        183
  19.6933        171
  19.7119        178
  19.7305        179
  19.7490        189
  19.7676        184
  19.7862        193
  19.8048        180
  19.8233        195
  19.8419        215
  19.8605        180
  19.8791        150
  19.8976        164
  19.9162        166
  19.9348        185
  19.9534        175
  19.9719        180
  19.9905        168
  20.0091        173
  20.0277        169
  20.0462        180
  20.0648        182
  20.0834        187
  20.1020        187
  20.1205        164
  20.1391        195
  20.1577        214
  20.1763        184
  20.1948        181
  20.2134        191
  20.2320        178
  20.2506        189
  20.2691        183
  20.2877        168
  20.3063        177
  20.3249        207
  20.3434        197
  20.3620        183
  20.3806        185
  20.3992        211
  20.4177        159
  20.4363        191
  20.4549        178
  20.4735        180
  20.4921        179
  20.5106        198
  20.5292        192
  20.5478        193
  20.5664        166
  20.5849        195
  20.6035        198
  20.6221        175
  20.6407        181
  20.6592        183
  20.6778        188
  20.6964        183
  20.7150        203
  20.7335        187
  20.7521        175
  20.7707        166
  20.7893        191
  20.8078        193
  20.8264        177
  20.8450        183
  20.8636        169
  20.8821        193
  20.9007        186
  20.9193        194
  20.9379        189
  20.9564        196
  20.9750        214
  20.9936        201
  21.0122        208
  21.0307        198
  21.0493        224
  21.0679        193
  21.0865        220
  21.1050        209
  21.1236        225
  21.1422        202
  21.1608        236
  21.1793        240
  21.1979        287
  21.2165        320
  21.2351        328
  21.2537        289
  21.2722        312
  21.2908        292
  21.3094        302
  21.3280        352
  21.3465        486
  21.3651        533
  21.3837        440
  21.4023        443
  21.4208        345
  21.4394        266
  21.4580        237
  21.4766        216
  21.4951        221
  21.5137        192
  21.5323        201
  21.5509        196
  21.5694        218
  21.5880        172
  21.6066        182
  21.6252        202
  21.6437        183
  21.6623        209
  21.6809        200
  21.6995        199
  21.7180        195
  21.7366        195
  21.7552        210
  21.7738        208
  21.7923        218
  21.8109        197
  21.8295        217
  21.8481        162
  21.8666        211
  21.8852        190
  21.9038        183
  21.9224        198
  21.9409        187
  21.9595        225
  21.9781        183
  21.9967        192
  22.0152        190
  22.0338        182
  22.0524        204
  22.0710        190
  22.0896        196
  22.1081        204
  22.1267        191
  22.1453        174
  22.1639        227
  22.1824        186
  22.2010        181
  22.2196        183
  22.2382        190
  22.2567        204
  22.2753        213
  22.2939        186
  22.3125        208
  22.3310        168
  22.3496        216
  22.3682        186
  22.3868        191
  22.4053        184
  22.4239        232
  22.4425        189
  22.4611        193
  22.4796        171
  22.4982        198
  22.5168        189
  22.5354        185
  22.5539        212
  22.5725        190
  22.5911        181
  22.6097        208
  22.6282        226
  22.6468        205
  22.6654        183
  22.6840        222
  22.7025        186
  22.7211        215
  22.7397        204
  22.7583        219
  22.7768        219
  22.7954        196
  22.8140        188
  22.8326        226
  22.8512        193
  22.8697        201
  22.8883        193
  22.9069        175
  22.9255        222
  22.9440        194
  22.9626        203
  22.9812        187
  22.9998        192
  23.0183        183
  23.0369        226
  23.0555        193
  23.0741        205
  23.0926        211
  23.1112        244
  23.1298        188
  23.1484        206
  23.1669        188
  23.1855        196
  23.2041        195
  23.2227        222
  23.2412        208
  23.2598        201
  23.2784        201
  23.2970        189
  23.3155        195
  23.3341        219
  23.3527        209
  23.3713        211
  23.3898        223
  23.4084        198
  23.4270        223
  23.4456        194
  23.4641        207
  23.4827        210
  23.5013        225
  23.5199        226
  23.5384        239
  23.5570        201
  23.5756        175
  23.5942        183
  23.6128        176
  23.6313        210
  23.6499        176
  23.6685        168
  23.6871        232
  23.7056        205
  23.7242        198
  23.7428        229
  23.7614        194
  23.7799        217
  23.7985        199
  23.8171        183
  23.8357        209
  23.8542        214
  23.8728        202
  23.8914        227
  23.9100        180
  23.9285        169
  23.9471        206
  23.9657        206
  23.9843        214
  24.0028        227
  24.0214        207
  24.0400        223
  24.0586        211
  24.0771        212
  24.0957        204
  24.1143        210
  24.1329        192
  24.1514        197
  24.1700        199
  24.1886        215
  24.2072        224
  24.2257        221
  24.2443        215
  24.2629        209
  24.2815        264
  24.3000        226
  24.3186        257
  24.3372        205
  24.3558        239
  24.3744        213
  24.3929        229
  24.4115        212
  24.4301        210
  24.4487        213
  24.4672        215
  24.4858        181
  24.5044        215
  24.5230        223
  24.5415        214
  24.5601        193
  24.5787        200
  24.5973        207
  24.6158        217
  24.6344        210
  24.6530        213
  24.6716        193
  24.6901        187
  24.7087        196
  24.7273        203
  24.7459        217
  24.7644        193
  24.7830        206
  24.8016        200
  24.8202        190
  24.8387        193
  24.8573        188
  24.8759        211
  24.8945        197
  24.9130        205
  24.9316        199
  24.9502        190
  24.9688        199
  24.9873        232
  25.0059        197
  25.0245        205
  25.0431        205
  25.0616        178
  25.0802        198
  25.0988        202
  25.1174        190
  25.1360        214
  25.1545        203
  25.1731        210
  25.1917        189
  25.2103        227
  25.2288        205
  25.2474        202
  25.2660        214
  25.2846        219
  25.3031        192
  25.3217        206
  25.3403        207
  25.3589        206
  25.3774        209
  25.3960        192
  25.4146        198
  25.4332        221
  25.4517        199
  25.4703        213
  25.4889        179
  25.5075        184
  25.5260        192
  25.5446        197
  25.5632        180
  25.5818        191
  25.6003        207
  25.6189        193
  25.6375        156
  25.6561        190
  25.6746        226
  25.6932        235
  25.7118        195
  25.7304        195
  25.7489        185
  25.7675        189
  25.7861        197
  25.8047        174
  25.8232        189
  25.8418        193
  25.8604        219
  25.8790        183
  25.8976        215
  25.9161        170
  25.9347        208
  25.9533        204
  25.9719        190
  25.9904        197
  26.0090        194
  26.0276        197
  26.0462        191
  26.0647        212
  26.0833        199
  26.1019        198
  26.1205        184
  26.1390        207
  26.1576        195
  26.1762        211
  26.1948        176
  26.2133        195
  26.2319        187
  26.2505        191
  26.2691        193
  26.2876        193
  26.3062        201
  26.3248        179
  26.3434        196
  26.3619        208
  26.3805        178
  26.3991        194
  26.4177        181
  26.4362        183
  26.4548        185
  26.4734        191
  26.4920        175
  26.5105        195
  26.5291        177
  26.5477        175
  26.5663        189
  26.5848        201
  26.6034        193
  26.6220        189
  26.6406        184
  26.6591        206
  26.6777        211
  26.6963        205
  26.7149        186
  26.7335        167
  26.7520        174
  26.7706        180
  26.7892        216
  26.8078        192
  26.8263        206
  26.8449        200
  26.8635        190
  26.8821        194
  26.9006        201
  26.9192        199
  26.9378        185
  26.9564        188
  26.9749        167
  26.9935        201
  27.0121        170
  27.0307        182
  27.0492        216
  27.0678        204
  27.0864        201
  27.1050        171
  27.1235        218
  27.1421        193
  27.1607        219
  27.1793        220
  27.1978        227
  27.2164        261
  27.2350        251
  27.2536        229
  27.2721        251
  27.2907        208
  27.3093        209
  27.3279        191
  27.3464        191
  27.3650        184
  27.3836        188
  27.4022        178
  27.4207        208
  27.4393        197
  27.4579        185
  27.4765        162
  27.4951        199
  27.5136        164
  27.5322        186
  27.5508        174
  27.5694        191
  27.5879        192
  27.6065        176
  27.6251        152
  27.6437        159
  27.6622        192
  27.6808        175
  27.6994        171
  27.7180        178
  27.7365        199
  27.7551        161
  27.7737        182
  27.7923        184
  27.8108        182
  27.8294        172
  27.8480        183
  27.8666        184
  27.8851        194
  27.9037        169
  27.9223        169
  27.9409        166
  27.9594        177
  27.9780        190
  27.9966        169
  28.0152        167
  28.0337        155
  28.0523        174
  28.0709        186
  28.0895        183
  28.1080        179
  28.1266        176
  28.1452        175
  28.1638        212
  28.1823        177
  28.2009        192
  28.2195        178
  28.2381        187
  28.2567        179
  28.2752        163
  28.2938        176
  28.3124        179
  28.3310        168
  28.3495        179
  28.3681        182
  28.3867        153
  28.4053        175
  28.4238        182
  28.4424        152
  28.4610        170
  28.4796        151
  28.4981        180
  28.5167        158
  28.5353        178
  28.5539        169
  28.5724        170
  28.5910        173
  28.6096        166
  28.6282        134
  28.6467        186
  28.6653        178
  28.6839        164
  28.7025        186
  28.7210        185
  28.7396        193
  28.7582        166
  28.7768        174
  28.7953        172
  28.8139        170
  28.8325        162
  28.8511        158
  28.8696        165
  28.8882        190
  28.9068        179
  28.9254        175
  28.9439        158
  28.9625        172
  28.9811        152
  28.9997        162
  29.0183        194
  29.0368        159
  29.0554        159
  29.0740        149
  29.0926        146
  29.1111        157
  29.1297        147
  29.1483        216
  29.1669        192
  29.1854        165
  29.2040        169
  29.2226        179
  29.2412        159
  29.2597        180
  29.2783        173
  29.2969        170
  29.3155        176
  29.3340        156
  29.3526        184
  29.3712        169
  29.3898        168
  29.4083        175
  29.4269        134
  29.4455        157
  29.4641        178
  29.4826        166
  29.5012        167
  29.5198        166
  29.5384        181
  29.5569        134
  29.5755        167
  29.5941        156
  29.6127        160
  29.6312        145
  29.6498        173
  29.6684        136
  29.6870        156
  29.7055        179
  29.7241        174
  29.7427        173
  29.7613        171
  29.7799        167
  29.7984        164
  29.8170        149
  29.8356        153
  29.8542        145
  29.8727        169
  29.8913        164
  29.9099        178
  29.9285        140
  29.9470        155
  29.9656        151
  29.9842        163
  30.0028        153
  30.0213        166
  30.0399        154
  30.0585        183
  30.0771        162
  30.0956        142
  30.1142        162
  30.1328        155
  30.1514        159
  30.1699        153
  30.1885        142
  30.2071        149
  30.2257        176
  30.2442        170
  30.2628        179
  30.2814        168
  30.3000        159
  30.3185        182
  30.3371        217
  30.3557        252
  30.3743        321
  30.3928        405
  30.4114        299
  30.4300        250
  30.4486        249
  30.4671        276
  30.4857        227
  30.5043        190
  30.5229        184
  30.5415        164
  30.5600        157
  30.5786        131
  30.5972        204
  30.6158        152
  30.6343        162
  30.6529        139
  30.6715        166
  30.6901        169
  30.7086        146
  30.7272        140
  30.7458        139
  30.7644        154
  30.7829        149
  30.8015        150
  30.8201        176
  30.8387        160
  30.8572        158
  30.8758        153
  30.8944        152
  30.9130        128
  30.9315        149
  30.9501        160
  30.9687        146
  30.9873        143
  31.0058        161
  31.0244        143
  31.0430        144
  31.0616        154
  31.0801        139
  31.0987        136
  31.1173        149
  31.1359        146
  31.1544        130
  31.1730        144
  31.1916        159
  31.2102        141
  31.2287        150
  31.2473        160
  31.2659        132
  31.2845        159
  31.3030        147
  31.3216        133
  31.3402        133
  31.3588        128
  31.3774        181
  31.3959        181
  31.4145        139
  31.4331        158
  31.4517        156
  31.4702        132
  31.4888        137
  31.5074        135
  31.5260        134
  31.5445        135
  31.5631        125
  31.5817        127
  31.6003        152
  31.6188        131
  31.6374        138
  31.6560        114
  31.6746        153
  31.6931        123
  31.7117        160
  31.7303        147
  31.7489        118
  31.7674        112
  31.7860        142
  31.8046        129
  31.8232        148
  31.8417        146
  31.8603        126
  31.8789        132
  31.8975        154
  31.9160        141
  31.9346        123
  31.9532        140
  31.9718        148
  31.9903        140
  32.0089        125
  32.0275        132
  32.0461        154
  32.0646        132
  32.0832        139
  32.1018        146
  32.1204        130
  32.1390        124
  32.1575        145
  32.1761        121
  32.1947        154
  32.2133        140
  32.2318        112
  32.2504        116
  32.2690        125
  32.2876        137
  32.3061        132
  32.3247        143
  32.3433        134
  32.3619        153
  32.3804        126
  32.3990        138
  32.4176        129
  32.4362        154
  32.4547        156
  32.4733        146
  32.4919        130
  32.5105        160
  32.5290        128
  32.5476        122
  32.5662        134
  32.5848        137
  32.6033        161
  32.6219        136
  32.6405        123
  32.6591        119
  32.6776        116
  32.6962        108
  32.7148        122
  32.7334        168
  32.7519        139
  32.7705        126
  32.7891        123
  32.8077        119
  32.8262        122
  32.8448        138
  32.8634        123
  32.8820        136
  32.9006        124
  32.9191        123
  32.9377        138
  32.9563        133
  32.9749        114
  32.9934        144
  33.0120        102
  33.0306        129
  33.0492        118
  33.0677        117
  33.0863        128
  33.1049        109
  33.1235        134
  33.1420        112
  33.1606        124
  33.1792        121
  33.1978        113
  33.2163        117
  33.2349        124
  33.2535        119
  33.2721        108
  33.2906        122
  33.3092        128
  33.3278        125
  33.3464        131
  33.3649        132
  33.3835        105
  33.4021        124
  33.4207        125
  33.4392        114
  33.4578        131
  33.4764        117
  33.4950        120
  33.5135        111
  33.5321        125
  33.5507        109
  33.5693        105
  33.5878        112
  33.6064        121
  33.6250        120
  33.6436        122
  33.6622        120
  33.6807        123
  33.6993        122
  33.7179        102
  33.7365        126
  33.7550         98
  33.7736        117
  33.7922        118
  33.8108        147
  33.8293        121
  33.8479        152
  33.8665        131
  33.8851        109
  33.9036         99
  33.9222         88
  33.9408        119
  33.9594        111
  33.9779        110
  33.9965        105
  34.0151        135
  34.0337        108
  34.0522        121
  34.0708        107
  34.0894        124
  34.1080        113
  34.1265        117
  34.1451        129
  34.1637        102
  34.1823        115
  34.2008        122
  34.2194        133
  34.2380        126
  34.2566         99
  34.2751         97
  34.2937        110
  34.3123         88
  34.3309        107
  34.3494        121
  34.3680        124
  34.3866        139
  34.4052        107
  34.4238        107
  34.4423         98
  34.4609        116
  34.4795         99
  34.4981        128
  34.5166        116
  34.5352        123
  34.5538        125
  34.5724        136
  34.5909        127
  34.6095        149
  34.6281        121
  34.6467        126
  34.6652        128
  34.6838        121
  34.7024        140
  34.7210        136
  34.7395        143
  34.7581        169
  34.7767        160
  34.7953        172
  34.8138        151
  34.8324        152
  34.8510        155
  34.8696        149
  34.8881        161
  34.9067        114
  34.9253        112
  34.9439        114
  34.9624        119
  34.9810        147
  34.9996        122
  35.0182        108
  35.0367        125
  35.0553        106
  35.0739        120
  35.0925        112
  35.1110        106
  35.1296        111
  35.1482        103
  35.1668        139
  35.1854         96
  35.2039        110
  35.2225         87
  35.2411        117
  35.2597        105
  35.2782        107
  35.2968         96
  35.3154         96
  35.3340        113
  35.3525        102
  35.3711         95
  35.3897        110
  35.4083        105
  35.4268        118
  35.4454         97
  35.4640         92
  35.4826         98
  35.5011        125
  35.5197        113
  35.5383         91
  35.5569         97
  35.5754        104
  35.5940        121
  35.6126        122
  35.6312        107
  35.6497         89
  35.6683        113
  35.6869        111
  35.7055        113
  35.7240        105
  35.7426         93
  35.7612        112
  35.7798        118
  35.7983        100
  35.8169        100
  35.8355         93
  35.8541        101
  35.8726        109
  35.8912         99
  35.9098        109
  35.9284        103
  35.9469        101
  35.9655         94
  35.9841        109
  36.0027         97
  36.0213         97
  36.0398         99
  36.0584        100
  36.0770         97
  36.0956        107
  36.1141         89
  36.1327         93
  36.1513         97
  36.1699         87
  36.1884         90
  36.2070         92
  36.2256         99
  36.2442         86
  36.2627        102
  36.2813         97
  36.2999         94
  36.3185         91
  36.3370        101
  36.3556        100
  36.3742        100
  36.3928         95
  36.4113         92
  36.4299        107
  36.4485         95
  36.4671        107
  36.4856         92
  36.5042         86
  36.5228         98
  36.5414         98
  36.5599         97
  36.5785         94
  36.5971         92
  36.6157         82
  36.6342         84
  36.6528         96
  36.6714         96
  36.6900         86
  36.7085         91
  36.7271         97
  36.7457         90
  36.7643         89
  36.7829         87
  36.8014        110
  36.8200         91
  36.8386         84
  36.8572         89
  36.8757         91
  36.8943         98
  36.9129         92
  36.9315        119
  36.9500        106
  36.9686        106
  36.9872         80
  37.0058         97
  37.0243         83
  37.0429        106
  37.0615         92
  37.0801         90
  37.0986         79
  37.1172         80
  37.1358        107
  37.1544        104
  37.1729        100
  37.1915         94
  37.2101         80
  37.2287         77
  37.2472         83
  37.2658         79
  37.2844         82
  37.3030         89
  37.3215        106
  37.3401        110
  37.3587        124
  37.3773        112
  37.3958        106
  37.4144        126
  37.4330        152
  37.4516        170
  37.4701        134
  37.4887        112
  37.5073        132
  37.5259        131
  37.5445        122
  37.5630        121
  37.5816        103
  37.6002         88
  37.6188         76
  37.6373        101
  37.6559        115
  37.6745         84
  37.6931        116
  37.7116        103
  37.7302         96
  37.7488         90
  37.7674         93
  37.7859         94
  37.8045         91
  37.8231         98
  37.8417         78
  37.8602         91
  37.8788         82
  37.8974         81
  37.9160         97
  37.9345         90
  37.9531         74
  37.9717        106
  37.9903         95
  38.0088         77
  38.0274         90
  38.0460         92
  38.0646         75
  38.0831         78
  38.1017         91
  38.1203         56
  38.1389         81
  38.1574         81
  38.1760         87
  38.1946         88
  38.2132         85
  38.2317         87
  38.2503         72
  38.2689         91
  38.2875         79
  38.3061         81
  38.3246         91
  38.3432         78
  38.3618         94
  38.3804         77
  38.3989         79
  38.4175         74
  38.4361         87
  38.4547         84
  38.4732         77
  38.4918         64
  38.5104         78
  38.5290        101
  38.5475         82
  38.5661         89
  38.5847         95
  38.6033         88
  38.6218        105
  38.6404         71
  38.6590         96
  38.6776         80
  38.6961         79
  38.7147         87
  38.7333         79
  38.7519         77
  38.7704         89
  38.7890         87
  38.8076         87
  38.8262         99
  38.8447         75
  38.8633         87
  38.8819        100
  38.9005         98
  38.9190         72
  38.9376         84
  38.9562         89
  38.9748         78
  38.9933         74
  39.0119         80
  39.0305         77
  39.0491         75
  39.0677         86
  39.0862         81
  39.1048         92
  39.1234         74
  39.1420         82
  39.1605         86
  39.1791         76
  39.1977         69
  39.2163         87
  39.2348         72
  39.2534         81
  39.2720         93
  39.2906         90
  39.3091         76
  39.3277         72
  39.3463         80
  39.3649         89
  39.3834         96
  39.4020         75
  39.4206         71
  39.4392         68
  39.4577         83
  39.4763         85
  39.4949         81
  39.5135         59
  39.5320         83
  39.5506         91
  39.5692         74
  39.5878         79
  39.6063         81
  39.6249         68
  39.6435         85
  39.6621         85
  39.6806         91
  39.6992         95
  39.7178         71
  39.7364         72
  39.7549         94
  39.7735         78
  39.7921         73
  39.8107         74
  39.8293         69
  39.8478         92
  39.8664         78
  39.8850         90
  39.9036         86
  39.9221        106
  39.9407         81
  39.9593         82
  39.9779         63
  39.9964         75
  40.0150         92
  40.0336         66
  40.0522         81
  40.0707         67
  40.0893         61
  40.1079         77
  40.1265         85
  40.1450         78
  40.1636         80
  40.1822         78
  40.2008         97
  40.2193         91
  40.2379         90
  40.2565         67
  40.2751         80
  40.2936         68
  40.3122        101
  40.3308         70
  40.3494         74
  40.3679         71
  40.3865         77
  40.4051         89
  40.4237         75
  40.4422         86
  40.4608         76
  40.4794         86
  40.4980         84
  40.5165         99
  40.5351         82
  40.5537         76
  40.5723         71
  40.5908         72
  40.6094         72
  40.6280         82
  40.6466         76
  40.6652         72
  40.6837         80
  40.7023         75
  40.7209         70
  40.7395         83
  40.7580         83
  40.7766         87
  40.7952         77
  40.8138         75
  40.8323         73
  40.8509         92
  40.8695         73
  40.8881         79
  40.9066         84
  40.9252         77
  40.9438         69
  40.9624         86
  40.9809         72
  40.9995         67
  41.0181         96
  41.0367         86
  41.0552         70
  41.0738         73
  41.0924         80
  41.1110         81
  41.1295         76
  41.1481         78
  41.1667         77
  41.1853         76
  41.2038         67
  41.2224         75
  41.2410         73
  41.2596         80
  41.2781         78
  41.2967         85
  41.3153         66
  41.3339         61
  41.3524         71
  41.3710         83
  41.3896         65
  41.4082         70
  41.4268         58
  41.4453         81
  41.4639         57
  41.4825         75
  41.5011         74
  41.5196         69
  41.5382         81
  41.5568         68
  41.5754         84
  41.5939         77
  41.6125         72
  41.6311         72
  41.6497         91
  41.6682         86
  41.6868         67
  41.7054         67
  41.7240         83
  41.7425         77
  41.7611         76
  41.7797         73
  41.7983         73
  41.8168         72
  41.8354         73
  41.8540         64
  41.8726         85
  41.8911         84
  41.9097         86
  41.9283         80
  41.9469         73
  41.9654         84
  41.9840         96
  42.0026         77
  42.0212         83
  42.0397         69
  42.0583         86
  42.0769         78
  42.0955         61
  42.1140         75
  42.1326         80
  42.1512         73
  42.1698         77
  42.1884         70
  42.2069        104
  42.2255         72
  42.2441         67
  42.2627         69
  42.2812         76
  42.2998         64
  42.3184         62
  42.3370         68
  42.3555         86
  42.3741         73
  42.3927         68
  42.4113         63
  42.4298         91
  42.4484         75
  42.4670         76
  42.4856         82
  42.5041         73
  42.5227         72
  42.5413         73
  42.5599         74
  42.5784         84
  42.5970         77
  42.6156         77
  42.6342         67
  42.6527         98
  42.6713         64
  42.6899         79
  42.7085         74
  42.7270         72
  42.7456         61
  42.7642         91
  42.7828         71
  42.8013         73
  42.8199         73
  42.8385         80
  42.8571         77
  42.8756         81
  42.8942         75
  42.9128         85
  42.9314         72
  42.9500         62
  42.9685         68
  42.9871         73
  43.0057         91
  43.0243         66
  43.0428         67
  43.0614         74
  43.0800         75
  43.0986         95
  43.1171         75
  43.1357         97
  43.1543         76
  43.1729         85
  43.1914         79
  43.2100         82
  43.2286         95
  43.2472        112
  43.2657         72
  43.2843         74
  43.3029         66
  43.3215         83
  43.3400         81
  43.3586         81
  43.3772         85
  43.3958         95
  43.4143         65
  43.4329         82
  43.4515         89
  43.4701        105
  43.4886        125
  43.5072        158
  43.5258        139
  43.5444        101
  43.5629         91
  43.5815         91
  43.6001        108
  43.6187         93
  43.6372        133
  43.6558         88
  43.6744         85
  43.6930         81
  43.7116         76
  43.7301         92
  43.7487         78
  43.7673         85
  43.7859         77
  43.8044         63
  43.8230         76
  43.8416         85
  43.8602         63
  43.8787         74
  43.8973         66
  43.9159         71
  43.9345         81
  43.9530         56
  43.9716         68
  43.9902         83
  44.0088         67
  44.0273         76
  44.0459         59
  44.0645         59
  44.0831         73
  44.1016         70
  44.1202         68
  44.1388         79
  44.1574         77
  44.1759         87
  44.1945         68
  44.2131         72
  44.2317         74
  44.2502         85
  44.2688         77
  44.2874         79
  44.3060         72
  44.3245         71
  44.3431         87
  44.3617         87
  44.3803         68
  44.3988         69
  44.4174         88
  44.4360         84
  44.4546         85
  44.4732         78
  44.4917         82
  44.5103         82
  44.5289         88
  44.5475         71
  44.5660         85
  44.5846         70
  44.6032         78
  44.6218         69
  44.6403         71
  44.6589         77
  44.6775         81
  44.6961         81
  44.7146         78
  44.7332         83
  44.7518         78
  44.7704         81
  44.7889         80
  44.8075         78
  44.8261         72
  44.8447         77
  44.8632         84
  44.8818         62
  44.9004         79
  44.9190         81
  44.9375         72
  44.9561         55
  44.9747         78
  44.9933         78
  45.0118         64
  45.0304         71
  45.0490         64
  45.0676         68
  45.0861         65
  45.1047         56
  45.1233         72
  45.1419         77
  45.1604         78
  45.1790         75
  45.1976         76
  45.2162         74
  45.2347         61
  45.2533         60
  45.2719         86
  45.2905         63
  45.3091         73
  45.3276         64
  45.3462         51
  45.3648         72
  45.3834         67
  45.4019         63
  45.4205         64
  45.4391         68
  45.4577         63
  45.4762         66
  45.4948         74
  45.5134         67
  45.5320         77
  45.5505         65
  45.5691         72
  45.5877         80
  45.6063         58
  45.6248         71
  45.6434         73
  45.6620         80
  45.6806         71
  45.6991         65
  45.7177         68
  45.7363         62
  45.7549         60
  45.7734         75
  45.7920         59
  45.8106         62
  45.8292         64
  45.8477         63
  45.8663         60
  45.8849         52
  45.9035         70
  45.9220         77
  45.9406         82
  45.9592         62
  45.9778         71
  45.9963         68
  46.0149         67
  46.0335         40
  46.0521         79
  46.0707         66
  46.0892         55
  46.1078         57
  46.1264         78
  46.1450         73
  46.1635         72
  46.1821         69
  46.2007         66
  46.2193         82
  46.2378         66
  46.2564         57
  46.2750         51
  46.2936         57
  46.3121         74
  46.3307         74
  46.3493         70
  46.3679         55
  46.3864         63
  46.4050         69
  46.4236         81
  46.4422         73
  46.4607         57
  46.4793         80
  46.4979         82
  46.5165         69
  46.5350         71
  46.5536         64
  46.5722         54
  46.5908         66
  46.6093         55
  46.6279         63
  46.6465         58
  46.6651         81
  46.6836         71
  46.7022         73
  46.7208         69
  46.7394         68
  46.7579         65
  46.7765         58
  46.7951         53
  46.8137         72
  46.8323         67
  46.8508         61
  46.8694         74
  46.8880         82
  46.9066         64
  46.9251         71
  46.9437         53
  46.9623         52
  46.9809         67
  46.9994         56
  47.0180         59
  47.0366         62
  47.0552         84
  47.0737         66
  47.0923         65
  47.1109         59
  47.1295         54
  47.1480         69
  47.1666         67
  47.1852         55
  47.2038         84
  47.2223         77
  47.2409         52
  47.2595         79
  47.2781         79
  47.2966         65
  47.3152         71
  47.3338         58
  47.3524         74
  47.3709         85
  47.3895         69
  47.4081         57
  47.4267         61
  47.4452         67
  47.4638         64
  47.4824         75
  47.5010         62
  47.5195         70
  47.5381         51
  47.5567         76
  47.5753         63
  47.5939         67
  47.6124         62
  47.6310         72
  47.6496         64
  47.6682         66
  47.6867         84
  47.7053         63
  47.7239         59
  47.7425         80
  47.7610         74
  47.7796         70
  47.7982         64
  47.8168         71
  47.8353         75
  47.8539         56
  47.8725         70
  47.8911         65
  47.9096         47
  47.9282         56
  47.9468         65
  47.9654         57
  47.9839         55
  48.0025         52
  48.0211         68
  48.0397         67
  48.0582         59
  48.0768         65
  48.0954         61
  48.1140         53
  48.1325         57
  48.1511         90
  48.1697         65
  48.1883         80
  48.2068         78
  48.2254         54
  48.2440         65
  48.2626         61
  48.2811         64
  48.2997         57
  48.3183         71
  48.3369         73
  48.3555         61
  48.3740         66
  48.3926         54
  48.4112         62
  48.4298         47
  48.4483         63
  48.4669         66
  48.4855         63
  48.5041         54
  48.5226         70
  48.5412         72
  48.5598         60
  48.5784         55
  48.5969         55
  48.6155         65
  48.6341         66
  48.6527         70
  48.6712         68
  48.6898         64
  48.7084         61
  48.7270         54
  48.7455         61
  48.7641         70
  48.7827         72
  48.8013         62
  48.8198         89
  48.8384         71
  48.8570         70
  48.8756         70
  48.8941         68
  48.9127         91
  48.9313         99
  48.9499        106
  48.9684        136
  48.9870        102
  49.0056        111
  49.0242         61
  49.0427         74
  49.0613         85
  49.0799        114
  49.0985         83
  49.1171         88
  49.1356         63
  49.1542         82
  49.1728         75
  49.1914         71
  49.2099         68
  49.2285         69
  49.2471         57
  49.2657         66
  49.2842         64
  49.3028         55
  49.3214         55
  49.3400         71
  49.3585         58
  49.3771         60
  49.3957         49
  49.4143         58
  49.4328         61
  49.4514         59
  49.4700         73
  49.4886         59
  49.5071         56
  49.5257         51
  49.5443         63
  49.5629         54
  49.5814         67
  49.6000         61
  49.6186         59
  49.6372         57
  49.6557         61
  49.6743         54
  49.6929         59
  49.7115         68
  49.7300         58
  49.7486         62
  49.7672         56
  49.7858         56
  49.8043         54
  49.8229         73
  49.8415         76
  49.8601         62
  49.8786         67
  49.8972         47
  49.9158         57
  49.9344         62
  49.9530         81
  49.9715         73
  49.9901         58
  50.0087         56
  50.0273         66
  50.0458         55
  50.0644         57
  50.0830         57
  50.1016         68
  50.1201         60
  50.1387         61
  50.1573         58
  50.1759         65
  50.1944         71
  50.2130         48
  50.2316         74
  50.2502         67
  50.2687         71
  50.2873         60
  50.3059         77
  50.3245         73
  50.3430         69
  50.3616         67
  50.3802         70
  50.3988         68
  50.4173         60
  50.4359         64
  50.4545         55
  50.4731         51
  50.4916         51
  50.5102         49
  50.5288         64
  50.5474         52
  50.5659         62
  50.5845         65
  50.6031         64
  50.6217         63
  50.6402         61
  50.6588         70
  50.6774         41
  50.6960         61
  50.7146         51
  50.7331         59
  50.7517         51
  50.7703         65
  50.7889         71
  50.8074         58
  50.8260         57
  50.8446         50
  50.8632         56
  50.8817         48
  50.9003         62
  50.9189         68
  50.9375         56
  50.9560         63
  50.9746         75
  50.9932         59
  51.0118         65
  51.0303         50
  51.0489         59
  51.0675         50
  51.0861         70
  51.1046         56
  51.1232         66
  51.1418         62
  51.1604         54
  51.1789         54
  51.1975         65
  51.2161         74
  51.2347         70
  51.2532         60
  51.2718         59
  51.2904         60
  51.3090         76
  51.3275         65
  51.3461         55
  51.3647         85
  51.3833         73
  51.4018         77
  51.4204         65
  51.4390         64
  51.4576         63
  51.4762         61
  51.4947         69
  51.5133         69
  51.5319         58
  51.5505         73
  51.5690         69
  51.5876         65
  51.6062         64
  51.6248         68
  51.6433         48
  51.6619         55
  51.6805         69
  51.6991         59
  51.7176         52
  51.7362         67
  51.7548         53
  51.7734         72
  51.7919         60
  51.8105         63
  51.8291         60
  51.8477         87
  51.8662         80
  51.8848         75
  51.9034         72
  51.9220         66
  51.9405         68
  51.9591         65
  51.9777         68
  51.9963         76
  52.0148         69
  52.0334         56
  52.0520         48
  52.0706         62
  52.0891         92
  52.1077         59
  52.1263         54
  52.1449         55
  52.1634         51
  52.1820         59
  52.2006         48
  52.2192         47
  52.2378         48
  52.2563         55
  52.2749         66
  52.2935         66
  52.3121         54
  52.3306         68
  52.3492         55
  52.3678         64
  52.3864         52
  52.4049         58
  52.4235         62
  52.4421         66
  52.4607         61
  52.4792         63
  52.4978         60
  52.5164         61
  52.5350         50
  52.5535         51
  52.5721         56
  52.5907         75
  52.6093         65
  52.6278         57
  52.6464         57
  52.6650         58
  52.6836         52
  52.7021         70
  52.7207         71
  52.7393         68
  52.7579         61
  52.7764         61
  52.7950         53
  52.8136         58
  52.8322         55
  52.8507         46
  52.8693         63
  52.8879         60
  52.9065         59
  52.9250         49
  52.9436         53
  52.9622         58
  52.9808         58
  52.9994         77
  53.0179         55
  53.0365         69
  53.0551         62
  53.0737         53
  53.0922         66
  53.1108         63
  53.1294         59
  53.1480         68
  53.1665         68
  53.1851         85
  53.2037         60
  53.2223         52
  53.2408         60
  53.2594         61
  53.2780         51
  53.2966         58
  53.3151         60
  53.3337         59
  53.3523         49
  53.3709         52
  53.3894         58
  53.4080         56
  53.4266         63
  53.4452         60
  53.4637         64
  53.4823         54
  53.5009         58
  53.5195         55
  53.5380         43
  53.5566         65
  53.5752         49
  53.5938         62
  53.6123         55
  53.6309         64
  53.6495         51
  53.6681         55
  53.6866         58
  53.7052         51
  53.7238         46
  53.7424         62
  53.7610         66
  53.7795         70
  53.7981         50
  53.8167         64
  53.8353         63
  53.8538         68
  53.8724         59
  53.8910         61
  53.9096         79
  53.9281         61
  53.9467         59
  53.9653         75
  53.9839         87
  54.0024         75
  54.0210         86
  54.0396         54
  54.0582         56
  54.0767         54
  54.0953         71
  54.1139         75
  54.1325         59
  54.1510         75
  54.1696         61
  54.1882         57
  54.2068         70
  54.2253         61
  54.2439         62
  54.2625         40
  54.2811         55
  54.2996         56
  54.3182         62
  54.3368         57
  54.3554         42
  54.3739         57
  54.3925         73
  54.4111         57
  54.4297         59
  54.4482         57
  54.4668         60
  54.4854         60
  54.5040         57
  54.5225         56
  54.5411         66
  54.5597         67
  54.5783         61
  54.5969         66
  54.6154         56
  54.6340         43
  54.6526         63
  54.6712         65
  54.6897         46
  54.7083         64
  54.7269         44
  54.7455         47
  54.7640         58
  54.7826         51
  54.8012         60
  54.8198         49
  54.8383         41
  54.8569         63
  54.8755         50
  54.8941         65
  54.9126         54
  54.9312         54
  54.9498         54
  54.9684         69
  54.9869         63
  55.0055         51
  55.0241         57
  55.0427         49
  55.0612         52
  55.0798         61
  55.0984         63
  55.1170         57
  55.1355         56
  55.1541         47
  55.1727         52
  55.1913         53
  55.2098         52
  55.2284         63
  55.2470         60
  55.2656         65
  55.2841         54
  55.3027         56
  55.3213         57
  55.3399         45
  55.3585         66
  55.3770         46
  55.3956         43
  55.4142         56
  55.4328         60
  55.4513         62
  55.4699         68
  55.4885         60
  55.5071         58
  55.5256         47
  55.5442         58
  55.5628         70
  55.5814         54
  55.5999         58
  55.6185         65
  55.6371         65
  55.6557         57
  55.6742         54
  55.6928         57
  55.7114         53
  55.7300         53
  55.7485         68
  55.7671         58
  55.7857         59
  55.8043         58
  55.8228         56
  55.8414         54
  55.8600         60
  55.8786         64
  55.8971         41
  55.9157         47
  55.9343         64
  55.9529         57
  55.9714         65
  55.9900         51
  56.0086         52
  56.0272         62
  56.0457         83
  56.0643         57
  56.0829         67
  56.1015         61
  56.1201         49
  56.1386         60
  56.1572         56
  56.1758         60
  56.1944         62
  56.2129         62
  56.2315         65
  56.2501         65
  56.2687         85
  56.2872         58
  56.3058         63
  56.3244         49
  56.3430         82
  56.3615         65
  56.3801         57
  56.3987         77
  56.4173         54
  56.4358         64
  56.4544         55
  56.4730         58
  56.4916         62
  56.5101         54
  56.5287         44
  56.5473         46
  56.5659         71
  56.5844         63
  56.6030         49
  56.6216         60
  56.6402         61
  56.6587         55
  56.6773         62
  56.6959         62
  56.7145         57
  56.7330         67
  56.7516         65
  56.7702         45
  56.7888         62
  56.8073         61
  56.8259         46
  56.8445         60
  56.8631         57
  56.8817         61
  56.9002         49
  56.9188         39
  56.9374         60
  56.9560         49
  56.9745         59
  56.9931         57
  57.0117         50
  57.0303         57
  57.0488         66
  57.0674         60
  57.0860         48
  57.1046         57
  57.1231         70
  57.1417         51
  57.1603         56
  57.1789         52
  57.1974         63
  57.2160         55
  57.2346         71
  57.2532         66
  57.2717         61
  57.2903         55
  57.3089         61
  57.3275         56
  57.3460         62
  57.3646         43
  57.3832         65
  57.4018         53
  57.4203         53
  57.4389         54
  57.4575         60
  57.4761         61
  57.4946         60
  57.5132         53
  57.5318         52
  57.5504         41
  57.5689         57
  57.5875         58
  57.6061         52
  57.6247         68
  57.6433         65
  57.6618         51
  57.6804         75
  57.6990         52
  57.7176         65
  57.7361         62
  57.7547         52
  57.7733         59
  57.7919         62
  57.8104         66
  57.8290         53
  57.8476         62
  57.8662         59
  57.8847         50
  57.9033         59
  57.9219         60
  57.9405         63
  57.9590         54
  57.9776         69
  57.9962         49
  58.0148         48
  58.0333         41
  58.0519         55
  58.0705         48
  58.0891         55
  58.1076         43
  58.1262         46
  58.1448         51
  58.1634         48
  58.1819         60
  58.2005         61
  58.2191         56
  58.2377         47
  58.2562         57
  58.2748         46
  58.2934         59
  58.3120         62
  58.3305         64
  58.3491         59
  58.3677         51
  58.3863         54
  58.4049         55
  58.4234         51
  58.4420         44
  58.4606         50
  58.4792         62
  58.4977         46
  58.5163         51
  58.5349         49
  58.5535         48
  58.5720         57
  58.5906         60
  58.6092         61
  58.6278         63
  58.6463         62
  58.6649         49
  58.6835         54
  58.7021         57
  58.7206         56
  58.7392         42
  58.7578         60
  58.7764         46
  58.7949         60
  58.8135         66
  58.8321         47
  58.8507         57
  58.8692         58
  58.8878         51
  58.9064         58
  58.9250         58
  58.9435         61
  58.9621         64
  58.9807         49
  58.9993         60
  59.0178         42
  59.0364         51
  59.0550         58
  59.0736         56
  59.0921         46
  59.1107         58
  59.1293         48
  59.1479         59
  59.1664         66
  59.1850         53
  59.2036         58
  59.2222         57
  59.2408         45
  59.2593         45
  59.2779         53
  59.2965         52
  59.3151         45
  59.3336         37
  59.3522         67
  59.3708         58
  59.3894         55
  59.4079         60
  59.4265         59
  59.4451         56
  59.4637         51
  59.4822         48
  59.5008         61
  59.5194         43
  59.5380         59
  59.5565         50
  59.5751         50
  59.5937         54
  59.6123         51
  59.6308         42
  59.6494         56
  59.6680         55
  59.6866         46
  59.7051         56
  59.7237         58
  59.7423         65
  59.7609         65
  59.7794         55
  59.7980         52
  59.8166         61
  59.8352         53
  59.8537         45
  59.8723         53
  59.8909         49
  59.9095         47
  59.9280         59
  59.9466         49
  59.9652         57
  59.9838         52
  60.0024         60
