; (content of file Y:\Sam\Apurva-07-20-2022\puck4\ML_20220718_54_SJD_4_LaB6-4min.raw)
_FILEVERSION = 3
_SAMPLE = ML_20220718_54_SJD_4_LaB6-4min
_+SAMPLE = 
_SITE = USA
_USER = Administrator
_GONIOMETER_CODE = 20
; Goniometer : D8 theta/2theta, stage : Unknown
_ATTACHMENTS_CODE = 0
_GONIOMETER_RADIUS = 200.5
_FIXED_DIVSLIT = 0.6
_FIXED_SAMPLESLIT = 0
_SOLLER_SLITS = 2
_FIXED_DETSLIT = 9.55
_MONOCHROMATOR = 0
; Incident beam monochromator : None
_SOLLER_SLITS_2 = N
_THIN_FILM = N
_BETA_FILTER = Y
_FIXED_ANTISLIT = 5.89
_ANALYZER_CODE = 0
; Received beam analyzer : None
_DATEMEASURED = "26-Jul-2022 14:18:41"
_WL_UNIT = A
_WL1 = 1.5406
_WL2 = 1.54439
_WL3 = 1.39222
_WLRATIO = 0.5
_ANODE = Cu
_V4_INF_CREATOR = XRDWizard
_V4_INF_CREATOR_VERSION = V2.9.0.22
_V4_INF_WIZARD_VERSION = V2.9.0.22
_V4_INF_WIZARD_ADDINS = V2.9.0.22
_V4_INF_WIZARD_DOCTYPE = XRD
_V4_INF_OSUSER = McQueenLab
_V4_INF_USER = Administrator
_V4_INF_SITE = USA
_V4_INF_SAMPLEID = ML_20220718_54_SJD_4_LaB6-4min

; Data for range 1
_DRIVE = COUPLED
_STEPTIME = 11.28
_STEPSIZE = 0.0185756
_STEPMODE = C
_START = 5
_THETA = 2.5
_2THETA = 5
_KHI = 0
_PHI = 0
_X = 0
_Y = 0
_Z = 0
_DETECTOR = 5
; Detector type : Unknown
_DETECTORSLIT = unkn
_AUX1 = 0
_AUX2 = 0
_AUX3 = 0
_TIMESTARTED = 14
_TEMP_RATE = -1
_TEMP_DELAY = -1
_KV = 40
_MA = 40
_RANGE_WL = 1.5406
_3DPLANE = 0
_V4_ADDITIONALDETECTOR = 257
_V4_PSD2THETA = 3.3878
_V4_PSDCHANNEL1 = 0
_V4_PSDAPERTURE = 12.68
_V4_PSDTYPE = 5
_V4_PSDFIXED = 0
_V4_COUNTERS_MASK = 4096
_V4_DRIVES_MASK = 0
_V4_ENCODERS_MASK = 0
_2THETACOUNTS = 1
; 2THETA  PSD
   5.0000        292
   5.0186        285
   5.0372        271
   5.0557        255
   5.0743        255
   5.0929        280
   5.1115        272
   5.1300        250
   5.1486        258
   5.1672        264
   5.1858        247
   5.2043        245
   5.2229        231
   5.2415        239
   5.2601        224
   5.2786        248
   5.2972        238
   5.3158        245
   5.3344        227
   5.3529        246
   5.3715        239
   5.3901        249
   5.4087        228
   5.4272        224
   5.4458        210
   5.4644        229
   5.4830        225
   5.5015        256
   5.5201        230
   5.5387        216
   5.5573        218
   5.5758        205
   5.5944        192
   5.6130        208
   5.6316        224
   5.6501        220
   5.6687        206
   5.6873        217
   5.7059        229
   5.7244        218
   5.7430        218
   5.7616        195
   5.7802        219
   5.7988        217
   5.8173        216
   5.8359        203
   5.8545        200
   5.8731        214
   5.8916        194
   5.9102        188
   5.9288        219
   5.9474        220
   5.9659        213
   5.9845        177
   6.0031        214
   6.0217        202
   6.0402        211
   6.0588        199
   6.0774        198
   6.0960        198
   6.1145        204
   6.1331        200
   6.1517        188
   6.1703        197
   6.1888        209
   6.2074        211
   6.2260        194
   6.2446        173
   6.2631        173
   6.2817        178
   6.3003        199
   6.3189        201
   6.3374        187
   6.3560        174
   6.3746        182
   6.3932        173
   6.4117        199
   6.4303        185
   6.4489        184
   6.4675        187
   6.4860        156
   6.5046        186
   6.5232        181
   6.5418        175
   6.5604        187
   6.5789        153
   6.5975        151
   6.6161        183
   6.6347        177
   6.6532        160
   6.6718        151
   6.6904        164
   6.7090        162
   6.7275        181
   6.7461        183
   6.7647        177
   6.7833        189
   6.8018        170
   6.8204        172
   6.8390        187
   6.8576        172
   6.8761        173
   6.8947        169
   6.9133        156
   6.9319        178
   6.9504        146
   6.9690        135
   6.9876        159
   7.0062        173
   7.0247        162
   7.0433        159
   7.0619        170
   7.0805        147
   7.0990        162
   7.1176        152
   7.1362        166
   7.1548        157
   7.1733        156
   7.1919        161
   7.2105        141
   7.2291        170
   7.2476        157
   7.2662        168
   7.2848        144
   7.3034        170
   7.3220        171
   7.3405        154
   7.3591        147
   7.3777        172
   7.3963        173
   7.4148        146
   7.4334        137
   7.4520        152
   7.4706        168
   7.4891        161
   7.5077        157
   7.5263        184
   7.5449        154
   7.5634        152
   7.5820        140
   7.6006        190
   7.6192        187
   7.6377        160
   7.6563        174
   7.6749        175
   7.6935        158
   7.7120        162
   7.7306        170
   7.7492        182
   7.7678        155
   7.7863        182
   7.8049        172
   7.8235        161
   7.8421        174
   7.8606        188
   7.8792        165
   7.8978        194
   7.9164        191
   7.9349        203
   7.9535        174
   7.9721        176
   7.9907        155
   8.0092        185
   8.0278        181
   8.0464        196
   8.0650        199
   8.0835        214
   8.1021        195
   8.1207        192
   8.1393        219
   8.1579        205
   8.1764        189
   8.1950        194
   8.2136        178
   8.2322        184
   8.2507        216
   8.2693        213
   8.2879        183
   8.3065        193
   8.3250        173
   8.3436        201
   8.3622        191
   8.3808        178
   8.3993        181
   8.4179        187
   8.4365        205
   8.4551        216
   8.4736        207
   8.4922        184
   8.5108        196
   8.5294        199
   8.5479        191
   8.5665        198
   8.5851        224
   8.6037        182
   8.6222        194
   8.6408        195
   8.6594        216
   8.6780        179
   8.6965        207
   8.7151        212
   8.7337        201
   8.7523        186
   8.7708        216
   8.7894        193
   8.8080        213
   8.8266        196
   8.8451        213
   8.8637        194
   8.8823        218
   8.9009        216
   8.9195        224
   8.9380        182
   8.9566        242
   8.9752        237
   8.9938        209
   9.0123        221
   9.0309        199
   9.0495        204
   9.0681        187
   9.0866        207
   9.1052        207
   9.1238        198
   9.1424        208
   9.1609        208
   9.1795        189
   9.1981        225
   9.2167        222
   9.2352        215
   9.2538        210
   9.2724        218
   9.2910        201
   9.3095        218
   9.3281        216
   9.3467        233
   9.3653        236
   9.3838        187
   9.4024        236
   9.4210        243
   9.4396        223
   9.4581        219
   9.4767        213
   9.4953        227
   9.5139        198
   9.5324        228
   9.5510        214
   9.5696        214
   9.5882        240
   9.6067        198
   9.6253        225
   9.6439        224
   9.6625        193
   9.6811        221
   9.6996        217
   9.7182        232
   9.7368        205
   9.7554        253
   9.7739        239
   9.7925        205
   9.8111        262
   9.8297        214
   9.8482        244
   9.8668        215
   9.8854        246
   9.9040        239
   9.9225        279
   9.9411        242
   9.9597        260
   9.9783        216
   9.9968        230
  10.0154        258
  10.0340        234
  10.0526        235
  10.0711        227
  10.0897        250
  10.1083        227
  10.1269        242
  10.1454        234
  10.1640        250
  10.1826        249
  10.2012        252
  10.2197        237
  10.2383        263
  10.2569        242
  10.2755        274
  10.2940        265
  10.3126        220
  10.3312        255
  10.3498        264
  10.3683        268
  10.3869        234
  10.4055        220
  10.4241        241
  10.4427        250
  10.4612        235
  10.4798        229
  10.4984        228
  10.5170        233
  10.5355        239
  10.5541        268
  10.5727        241
  10.5913        272
  10.6098        239
  10.6284        241
  10.6470        257
  10.6656        240
  10.6841        231
  10.7027        243
  10.7213        222
  10.7399        238
  10.7584        248
  10.7770        269
  10.7956        247
  10.8142        234
  10.8327        247
  10.8513        230
  10.8699        236
  10.8885        214
  10.9070        224
  10.9256        231
  10.9442        229
  10.9628        229
  10.9813        245
  10.9999        240
  11.0185        278
  11.0371        259
  11.0556        234
  11.0742        238
  11.0928        242
  11.1114        252
  11.1299        237
  11.1485        238
  11.1671        224
  11.1857        229
  11.2043        262
  11.2228        242
  11.2414        239
  11.2600        235
  11.2786        233
  11.2971        248
  11.3157        225
  11.3343        239
  11.3529        273
  11.3714        237
  11.3900        244
  11.4086        250
  11.4272        212
  11.4457        231
  11.4643        263
  11.4829        243
  11.5015        247
  11.5200        243
  11.5386        212
  11.5572        230
  11.5758        242
  11.5943        206
  11.6129        243
  11.6315        227
  11.6501        252
  11.6686        238
  11.6872        235
  11.7058        208
  11.7244        218
  11.7429        238
  11.7615        232
  11.7801        225
  11.7987        224
  11.8172        244
  11.8358        242
  11.8544        249
  11.8730        196
  11.8915        244
  11.9101        222
  11.9287        204
  11.9473        223
  11.9659        211
  11.9844        233
  12.0030        222
  12.0216        228
  12.0402        203
  12.0587        210
  12.0773        228
  12.0959        206
  12.1145        228
  12.1330        216
  12.1516        232
  12.1702        242
  12.1888        212
  12.2073        229
  12.2259        219
  12.2445        206
  12.2631        250
  12.2816        209
  12.3002        193
  12.3188        223
  12.3374        240
  12.3559        200
  12.3745        210
  12.3931        240
  12.4117        214
  12.4302        219
  12.4488        227
  12.4674        196
  12.4860        224
  12.5045        234
  12.5231        198
  12.5417        234
  12.5603        205
  12.5788        217
  12.5974        194
  12.6160        203
  12.6346        203
  12.6531        213
  12.6717        218
  12.6903        193
  12.7089        213
  12.7274        240
  12.7460        224
  12.7646        209
  12.7832        197
  12.8018        220
  12.8203        201
  12.8389        204
  12.8575        227
  12.8761        220
  12.8946        209
  12.9132        223
  12.9318        183
  12.9504        185
  12.9689        202
  12.9875        198
  13.0061        199
  13.0247        200
  13.0432        191
  13.0618        212
  13.0804        199
  13.0990        214
  13.1175        209
  13.1361        214
  13.1547        215
  13.1733        188
  13.1918        214
  13.2104        175
  13.2290        190
  13.2476        215
  13.2661        217
  13.2847        192
  13.3033        214
  13.3219        185
  13.3404        207
  13.3590        178
  13.3776        191
  13.3962        178
  13.4147        216
  13.4333        211
  13.4519        199
  13.4705        183
  13.4890        185
  13.5076        185
  13.5262        219
  13.5448        214
  13.5634        180
  13.5819        214
  13.6005        201
  13.6191        215
  13.6377        191
  13.6562        193
  13.6748        191
  13.6934        204
  13.7120        175
  13.7305        194
  13.7491        175
  13.7677        196
  13.7863        182
  13.8048        153
  13.8234        178
  13.8420        162
  13.8606        165
  13.8791        199
  13.8977        184
  13.9163        184
  13.9349        183
  13.9534        179
  13.9720        191
  13.9906        172
  14.0092        183
  14.0277        159
  14.0463        185
  14.0649        217
  14.0835        190
  14.1020        181
  14.1206        175
  14.1392        181
  14.1578        174
  14.1763        201
  14.1949        180
  14.2135        156
  14.2321        158
  14.2506        178
  14.2692        190
  14.2878        191
  14.3064        168
  14.3250        198
  14.3435        196
  14.3621        159
  14.3807        185
  14.3993        191
  14.4178        199
  14.4364        162
  14.4550        182
  14.4736        168
  14.4921        187
  14.5107        162
  14.5293        181
  14.5479        180
  14.5664        173
  14.5850        184
  14.6036        156
  14.6222        208
  14.6407        183
  14.6593        160
  14.6779        152
  14.6965        163
  14.7150        171
  14.7336        178
  14.7522        180
  14.7708        151
  14.7893        155
  14.8079        161
  14.8265        181
  14.8451        176
  14.8636        175
  14.8822        176
  14.9008        177
  14.9194        163
  14.9379        168
  14.9565        198
  14.9751        180
  14.9937        181
  15.0122        165
  15.0308        143
  15.0494        157
  15.0680        152
  15.0866        176
  15.1051        187
  15.1237        166
  15.1423        202
  15.1609        168
  15.1794        160
  15.1980        162
  15.2166        181
  15.2352        171
  15.2537        169
  15.2723        142
  15.2909        159
  15.3095        133
  15.3280        152
  15.3466        160
  15.3652        157
  15.3838        178
  15.4023        169
  15.4209        164
  15.4395        181
  15.4581        175
  15.4766        180
  15.4952        146
  15.5138        181
  15.5324        153
  15.5509        166
  15.5695        165
  15.5881        141
  15.6067        182
  15.6252        177
  15.6438        171
  15.6624        157
  15.6810        141
  15.6995        156
  15.7181        190
  15.7367        191
  15.7553        166
  15.7738        148
  15.7924        169
  15.8110        163
  15.8296        141
  15.8482        167
  15.8667        141
  15.8853        182
  15.9039        164
  15.9225        174
  15.9410        169
  15.9596        175
  15.9782        147
  15.9968        133
  16.0153        138
  16.0339        194
  16.0525        146
  16.0711        175
  16.0896        146
  16.1082        149
  16.1268        159
  16.1454        147
  16.1639        167
  16.1825        156
  16.2011        156
  16.2197        154
  16.2382        146
  16.2568        177
  16.2754        168
  16.2940        184
  16.3125        162
  16.3311        165
  16.3497        156
  16.3683        151
  16.3868        174
  16.4054        157
  16.4240        167
  16.4426        155
  16.4611        160
  16.4797        161
  16.4983        175
  16.5169        158
  16.5354        158
  16.5540        187
  16.5726        159
  16.5912        150
  16.6097        155
  16.6283        152
  16.6469        184
  16.6655        172
  16.6841        148
  16.7026        163
  16.7212        161
  16.7398        163
  16.7584        155
  16.7769        153
  16.7955        149
  16.8141        176
  16.8327        159
  16.8512        151
  16.8698        143
  16.8884        163
  16.9070        171
  16.9255        182
  16.9441        159
  16.9627        153
  16.9813        158
  16.9998        180
  17.0184        144
  17.0370        162
  17.0556        173
  17.0741        151
  17.0927        177
  17.1113        161
  17.1299        171
  17.1484        145
  17.1670        160
  17.1856        162
  17.2042        183
  17.2227        166
  17.2413        181
  17.2599        153
  17.2785        189
  17.2970        144
  17.3156        157
  17.3342        175
  17.3528        159
  17.3713        162
  17.3899        171
  17.4085        154
  17.4271        174
  17.4457        170
  17.4642        164
  17.4828        164
  17.5014        161
  17.5200        167
  17.5385        152
  17.5571        155
  17.5757        165
  17.5943        178
  17.6128        139
  17.6314        165
  17.6500        167
  17.6686        165
  17.6871        168
  17.7057        161
  17.7243        166
  17.7429        138
  17.7614        180
  17.7800        153
  17.7986        189
  17.8172        160
  17.8357        163
  17.8543        166
  17.8729        182
  17.8915        167
  17.9100        162
  17.9286        183
  17.9472        148
  17.9658        188
  17.9843        162
  18.0029        169
  18.0215        187
  18.0401        162
  18.0586        146
  18.0772        161
  18.0958        180
  18.1144        164
  18.1329        163
  18.1515        174
  18.1701        157
  18.1887        177
  18.2073        171
  18.2258        175
  18.2444        128
  18.2630        147
  18.2816        155
  18.3001        134
  18.3187        134
  18.3373        143
  18.3559        179
  18.3744        181
  18.3930        165
  18.4116        169
  18.4302        165
  18.4487        137
  18.4673        160
  18.4859        160
  18.5045        152
  18.5230        182
  18.5416        177
  18.5602        137
  18.5788        161
  18.5973        172
  18.6159        170
  18.6345        154
  18.6531        163
  18.6716        170
  18.6902        185
  18.7088        167
  18.7274        185
  18.7459        181
  18.7645        164
  18.7831        163
  18.8017        157
  18.8202        182
  18.8388        164
  18.8574        163
  18.8760        163
  18.8945        187
  18.9131        176
  18.9317        153
  18.9503        167
  18.9689        187
  18.9874        168
  19.0060        176
  19.0246        188
  19.0432        152
  19.0617        169
  19.0803        147
  19.0989        168
  19.1175        162
  19.1360        175
  19.1546        195
  19.1732        166
  19.1918        171
  19.2103        181
  19.2289        173
  19.2475        167
  19.2661        161
  19.2846        183
  19.3032        166
  19.3218        160
  19.3404        161
  19.3589        173
  19.3775        193
  19.3961        155
  19.4147        168
  19.4332        174
  19.4518        170
  19.4704        187
  19.4890        177
  19.5075        181
  19.5261        161
  19.5447        192
  19.5633        195
  19.5818        166
  19.6004        169
  19.6190        190
  19.6376        155
  19.6561        176
  19.6747        190
  19.6933        175
  19.7119        181
  19.7305        164
  19.7490        170
  19.7676        174
  19.7862        173
  19.8048        188
  19.8233        196
  19.8419        180
  19.8605        149
  19.8791        172
  19.8976        193
  19.9162        187
  19.9348        164
  19.9534        158
  19.9719        197
  19.9905        166
  20.0091        172
  20.0277        201
  20.0462        170
  20.0648        184
  20.0834        186
  20.1020        175
  20.1205        185
  20.1391        186
  20.1577        165
  20.1763        167
  20.1948        169
  20.2134        179
  20.2320        191
  20.2506        161
  20.2691        183
  20.2877        181
  20.3063        188
  20.3249        180
  20.3434        192
  20.3620        184
  20.3806        174
  20.3992        189
  20.4177        153
  20.4363        169
  20.4549        186
  20.4735        181
  20.4921        182
  20.5106        213
  20.5292        187
  20.5478        181
  20.5664        188
  20.5849        171
  20.6035        175
  20.6221        213
  20.6407        200
  20.6592        197
  20.6778        173
  20.6964        190
  20.7150        185
  20.7335        209
  20.7521        198
  20.7707        185
  20.7893        193
  20.8078        177
  20.8264        186
  20.8450        199
  20.8636        183
  20.8821        157
  20.9007        179
  20.9193        170
  20.9379        200
  20.9564        189
  20.9750        177
  20.9936        206
  21.0122        195
  21.0307        199
  21.0493        189
  21.0679        210
  21.0865        208
  21.1050        189
  21.1236        216
  21.1422        203
  21.1608        256
  21.1793        238
  21.1979        287
  21.2165        266
  21.2351        327
  21.2537        326
  21.2722        280
  21.2908        283
  21.3094        304
  21.3280        340
  21.3465        499
  21.3651        539
  21.3837        411
  21.4023        377
  21.4208        380
  21.4394        298
  21.4580        244
  21.4766        219
  21.4951        243
  21.5137        196
  21.5323        182
  21.5509        191
  21.5694        193
  21.5880        170
  21.6066        221
  21.6252        224
  21.6437        192
  21.6623        219
  21.6809        192
  21.6995        193
  21.7180        171
  21.7366        192
  21.7552        193
  21.7738        195
  21.7923        175
  21.8109        198
  21.8295        202
  21.8481        180
  21.8666        181
  21.8852        219
  21.9038        195
  21.9224        192
  21.9409        213
  21.9595        180
  21.9781        184
  21.9967        200
  22.0152        207
  22.0338        191
  22.0524        207
  22.0710        184
  22.0896        204
  22.1081        207
  22.1267        196
  22.1453        199
  22.1639        200
  22.1824        208
  22.2010        206
  22.2196        203
  22.2382        172
  22.2567        180
  22.2753        213
  22.2939        220
  22.3125        193
  22.3310        208
  22.3496        197
  22.3682        199
  22.3868        194
  22.4053        209
  22.4239        207
  22.4425        229
  22.4611        200
  22.4796        198
  22.4982        163
  22.5168        216
  22.5354        209
  22.5539        198
  22.5725        191
  22.5911        208
  22.6097        223
  22.6282        210
  22.6468        185
  22.6654        201
  22.6840        219
  22.7025        211
  22.7211        185
  22.7397        184
  22.7583        213
  22.7768        218
  22.7954        184
  22.8140        216
  22.8326        197
  22.8512        212
  22.8697        170
  22.8883        183
  22.9069        206
  22.9255        179
  22.9440        196
  22.9626        203
  22.9812        218
  22.9998        210
  23.0183        221
  23.0369        204
  23.0555        202
  23.0741        211
  23.0926        199
  23.1112        200
  23.1298        221
  23.1484        199
  23.1669        203
  23.1855        222
  23.2041        216
  23.2227        195
  23.2412        175
  23.2598        214
  23.2784        215
  23.2970        189
  23.3155        189
  23.3341        181
  23.3527        184
  23.3713        187
  23.3898        192
  23.4084        186
  23.4270        194
  23.4456        195
  23.4641        203
  23.4827        215
  23.5013        173
  23.5199        213
  23.5384        191
  23.5570        167
  23.5756        217
  23.5942        180
  23.6128        176
  23.6313        223
  23.6499        186
  23.6685        183
  23.6871        199
  23.7056        208
  23.7242        195
  23.7428        192
  23.7614        198
  23.7799        183
  23.7985        217
  23.8171        200
  23.8357        189
  23.8542        207
  23.8728        242
  23.8914        196
  23.9100        217
  23.9285        209
  23.9471        232
  23.9657        190
  23.9843        188
  24.0028        186
  24.0214        212
  24.0400        219
  24.0586        221
  24.0771        203
  24.0957        217
  24.1143        197
  24.1329        205
  24.1514        216
  24.1700        192
  24.1886        178
  24.2072        225
  24.2257        244
  24.2443        222
  24.2629        208
  24.2815        226
  24.3000        224
  24.3186        221
  24.3372        220
  24.3558        204
  24.3744        190
  24.3929        240
  24.4115        186
  24.4301        217
  24.4487        199
  24.4672        221
  24.4858        203
  24.5044        194
  24.5230        205
  24.5415        197
  24.5601        185
  24.5787        182
  24.5973        215
  24.6158        196
  24.6344        215
  24.6530        201
  24.6716        182
  24.6901        206
  24.7087        215
  24.7273        163
  24.7459        192
  24.7644        214
  24.7830        192
  24.8016        170
  24.8202        185
  24.8387        207
  24.8573        207
  24.8759        211
  24.8945        208
  24.9130        200
  24.9316        212
  24.9502        216
  24.9688        177
  24.9873        200
  25.0059        189
  25.0245        204
  25.0431        185
  25.0616        225
  25.0802        197
  25.0988        185
  25.1174        197
  25.1360        201
  25.1545        199
  25.1731        171
  25.1917        192
  25.2103        183
  25.2288        192
  25.2474        187
  25.2660        193
  25.2846        210
  25.3031        205
  25.3217        197
  25.3403        162
  25.3589        195
  25.3774        200
  25.3960        203
  25.4146        199
  25.4332        175
  25.4517        201
  25.4703        198
  25.4889        177
  25.5075        180
  25.5260        183
  25.5446        204
  25.5632        201
  25.5818        206
  25.6003        188
  25.6189        190
  25.6375        190
  25.6561        216
  25.6746        189
  25.6932        178
  25.7118        199
  25.7304        217
  25.7489        205
  25.7675        180
  25.7861        197
  25.8047        211
  25.8232        195
  25.8418        180
  25.8604        198
  25.8790        199
  25.8976        199
  25.9161        193
  25.9347        218
  25.9533        194
  25.9719        169
  25.9904        216
  26.0090        224
  26.0276        192
  26.0462        207
  26.0647        196
  26.0833        214
  26.1019        198
  26.1205        191
  26.1390        174
  26.1576        214
  26.1762        173
  26.1948        198
  26.2133        174
  26.2319        209
  26.2505        191
  26.2691        178
  26.2876        178
  26.3062        198
  26.3248        167
  26.3434        188
  26.3619        185
  26.3805        170
  26.3991        190
  26.4177        192
  26.4362        195
  26.4548        176
  26.4734        174
  26.4920        203
  26.5105        176
  26.5291        175
  26.5477        186
  26.5663        185
  26.5848        187
  26.6034        202
  26.6220        195
  26.6406        192
  26.6591        183
  26.6777        211
  26.6963        186
  26.7149        199
  26.7335        171
  26.7520        191
  26.7706        186
  26.7892        197
  26.8078        190
  26.8263        176
  26.8449        183
  26.8635        193
  26.8821        173
  26.9006        196
  26.9192        204
  26.9378        168
  26.9564        184
  26.9749        232
  26.9935        189
  27.0121        163
  27.0307        199
  27.0492        204
  27.0678        189
  27.0864        186
  27.1050        175
  27.1235        162
  27.1421        206
  27.1607        218
  27.1793        209
  27.1978        253
  27.2164        260
  27.2350        217
  27.2536        235
  27.2721        242
  27.2907        207
  27.3093        213
  27.3279        215
  27.3464        201
  27.3650        202
  27.3836        201
  27.4022        197
  27.4207        202
  27.4393        189
  27.4579        206
  27.4765        170
  27.4951        156
  27.5136        173
  27.5322        207
  27.5508        190
  27.5694        183
  27.5879        202
  27.6065        167
  27.6251        181
  27.6437        159
  27.6622        180
  27.6808        164
  27.6994        187
  27.7180        190
  27.7365        161
  27.7551        179
  27.7737        189
  27.7923        175
  27.8108        189
  27.8294        177
  27.8480        187
  27.8666        169
  27.8851        160
  27.9037        161
  27.9223        163
  27.9409        164
  27.9594        177
  27.9780        174
  27.9966        172
  28.0152        184
  28.0337        185
  28.0523        169
  28.0709        160
  28.0895        176
  28.1080        171
  28.1266        168
  28.1452        169
  28.1638        179
  28.1823        172
  28.2009        170
  28.2195        187
  28.2381        163
  28.2567        163
  28.2752        195
  28.2938        196
  28.3124        157
  28.3310        178
  28.3495        171
  28.3681        182
  28.3867        177
  28.4053        182
  28.4238        158
  28.4424        154
  28.4610        194
  28.4796        164
  28.4981        171
  28.5167        157
  28.5353        171
  28.5539        153
  28.5724        163
  28.5910        175
  28.6096        163
  28.6282        173
  28.6467        159
  28.6653        147
  28.6839        180
  28.7025        144
  28.7210        168
  28.7396        166
  28.7582        167
  28.7768        168
  28.7953        175
  28.8139        182
  28.8325        187
  28.8511        143
  28.8696        200
  28.8882        160
  28.9068        142
  28.9254        162
  28.9439        162
  28.9625        176
  28.9811        154
  28.9997        166
  29.0183        152
  29.0368        169
  29.0554        175
  29.0740        173
  29.0926        157
  29.1111        142
  29.1297        169
  29.1483        183
  29.1669        158
  29.1854        165
  29.2040        167
  29.2226        161
  29.2412        182
  29.2597        168
  29.2783        181
  29.2969        171
  29.3155        165
  29.3340        184
  29.3526        154
  29.3712        140
  29.3898        173
  29.4083        169
  29.4269        148
  29.4455        134
  29.4641        147
  29.4826        157
  29.5012        154
  29.5198        149
  29.5384        141
  29.5569        167
  29.5755        187
  29.5941        156
  29.6127        154
  29.6312        164
  29.6498        174
  29.6684        158
  29.6870        169
  29.7055        155
  29.7241        170
  29.7427        161
  29.7613        163
  29.7799        177
  29.7984        149
  29.8170        163
  29.8356        151
  29.8542        145
  29.8727        152
  29.8913        156
  29.9099        154
  29.9285        138
  29.9470        169
  29.9656        187
  29.9842        154
  30.0028        139
  30.0213        158
  30.0399        141
  30.0585        158
  30.0771        152
  30.0956        149
  30.1142        161
  30.1328        153
  30.1514        159
  30.1699        193
  30.1885        181
  30.2071        161
  30.2257        186
  30.2442        163
  30.2628        166
  30.2814        169
  30.3000        169
  30.3185        202
  30.3371        223
  30.3557        219
  30.3743        295
  30.3928        346
  30.4114        276
  30.4300        209
  30.4486        229
  30.4671        219
  30.4857        238
  30.5043        172
  30.5229        169
  30.5415        171
  30.5600        158
  30.5786        157
  30.5972        137
  30.6158        144
  30.6343        154
  30.6529        173
  30.6715        139
  30.6901        147
  30.7086        158
  30.7272        176
  30.7458        154
  30.7644        161
  30.7829        169
  30.8015        154
  30.8201        137
  30.8387        157
  30.8572        159
  30.8758        130
  30.8944        145
  30.9130        148
  30.9315        118
  30.9501        137
  30.9687        132
  30.9873        140
  31.0058        150
  31.0244        131
  31.0430        150
  31.0616        132
  31.0801        155
  31.0987        139
  31.1173        135
  31.1359        137
  31.1544        150
  31.1730        129
  31.1916        144
  31.2102        128
  31.2287        142
  31.2473        136
  31.2659        124
  31.2845        149
  31.3030        152
  31.3216        141
  31.3402        133
  31.3588        143
  31.3774        133
  31.3959        144
  31.4145        147
  31.4331        155
  31.4517        139
  31.4702        134
  31.4888        133
  31.5074        145
  31.5260        147
  31.5445        130
  31.5631        132
  31.5817        158
  31.6003        135
  31.6188        145
  31.6374        141
  31.6560        146
  31.6746        115
  31.6931        115
  31.7117        136
  31.7303        145
  31.7489        152
  31.7674        131
  31.7860        121
  31.8046        160
  31.8232        144
  31.8417        167
  31.8603        140
  31.8789        144
  31.8975        133
  31.9160        116
  31.9346        122
  31.9532        133
  31.9718        129
  31.9903        141
  32.0089        125
  32.0275        156
  32.0461        138
  32.0646        138
  32.0832        106
  32.1018        123
  32.1204        143
  32.1390        143
  32.1575        135
  32.1761        142
  32.1947        119
  32.2133        122
  32.2318        136
  32.2504        135
  32.2690        133
  32.2876        125
  32.3061        131
  32.3247        121
  32.3433        154
  32.3619        131
  32.3804        140
  32.3990        141
  32.4176        122
  32.4362        151
  32.4547        165
  32.4733        165
  32.4919        159
  32.5105        165
  32.5290        152
  32.5476        153
  32.5662        146
  32.5848        141
  32.6033        144
  32.6219        119
  32.6405        124
  32.6591        132
  32.6776        167
  32.6962        104
  32.7148        130
  32.7334        162
  32.7519        113
  32.7705        134
  32.7891        121
  32.8077        136
  32.8262        121
  32.8448        129
  32.8634        141
  32.8820        120
  32.9006        127
  32.9191        137
  32.9377        131
  32.9563        121
  32.9749        113
  32.9934        118
  33.0120        107
  33.0306        110
  33.0492        118
  33.0677        123
  33.0863        114
  33.1049        147
  33.1235        149
  33.1420        116
  33.1606        120
  33.1792        123
  33.1978        106
  33.2163        126
  33.2349        120
  33.2535        116
  33.2721        127
  33.2906        120
  33.3092        112
  33.3278        122
  33.3464        134
  33.3649        117
  33.3835        106
  33.4021        109
  33.4207        110
  33.4392        109
  33.4578        101
  33.4764        117
  33.4950        137
  33.5135        123
  33.5321        100
  33.5507        146
  33.5693        125
  33.5878        124
  33.6064        108
  33.6250        106
  33.6436        126
  33.6622        117
  33.6807        136
  33.6993        120
  33.7179        109
  33.7365         97
  33.7550        109
  33.7736        125
  33.7922         93
  33.8108        101
  33.8293        116
  33.8479        118
  33.8665        127
  33.8851        131
  33.9036        110
  33.9222        119
  33.9408        115
  33.9594        114
  33.9779        110
  33.9965        105
  34.0151        106
  34.0337        118
  34.0522        134
  34.0708        118
  34.0894        115
  34.1080        115
  34.1265         87
  34.1451        103
  34.1637        116
  34.1823        117
  34.2008        111
  34.2194        107
  34.2380        101
  34.2566        130
  34.2751        110
  34.2937         99
  34.3123        119
  34.3309        127
  34.3494        138
  34.3680        108
  34.3866        121
  34.4052        129
  34.4238        107
  34.4423        108
  34.4609        127
  34.4795        125
  34.4981        116
  34.5166        107
  34.5352        129
  34.5538        134
  34.5724        127
  34.5909        102
  34.6095        120
  34.6281        122
  34.6467        135
  34.6652        139
  34.6838        137
  34.7024        150
  34.7210        140
  34.7395        154
  34.7581        172
  34.7767        173
  34.7953        157
  34.8138        150
  34.8324        133
  34.8510        141
  34.8696        134
  34.8881        117
  34.9067        126
  34.9253        127
  34.9439        111
  34.9624        130
  34.9810        128
  34.9996        111
  35.0182        107
  35.0367        104
  35.0553        126
  35.0739        107
  35.0925         96
  35.1110        125
  35.1296        122
  35.1482        108
  35.1668        117
  35.1854         94
  35.2039         95
  35.2225         91
  35.2411         95
  35.2597         89
  35.2782         89
  35.2968         94
  35.3154         99
  35.3340         72
  35.3525        100
  35.3711        106
  35.3897         82
  35.4083         91
  35.4268         97
  35.4454         94
  35.4640        107
  35.4826        109
  35.5011        121
  35.5197         90
  35.5383         97
  35.5569         80
  35.5754        103
  35.5940        101
  35.6126         82
  35.6312         97
  35.6497        101
  35.6683         95
  35.6869        105
  35.7055        102
  35.7240        122
  35.7426        104
  35.7612         96
  35.7798        112
  35.7983         95
  35.8169         93
  35.8355        104
  35.8541         91
  35.8726         93
  35.8912         96
  35.9098         90
  35.9284         94
  35.9469        101
  35.9655         80
  35.9841         76
  36.0027        112
  36.0213        105
  36.0398         99
  36.0584         99
  36.0770         99
  36.0956         94
  36.1141         98
  36.1327         85
  36.1513        108
  36.1699        103
  36.1884        113
  36.2070         86
  36.2256         86
  36.2442        101
  36.2627         92
  36.2813        112
  36.2999         85
  36.3185         95
  36.3370        105
  36.3556        109
  36.3742        106
  36.3928         78
  36.4113         79
  36.4299        113
  36.4485         95
  36.4671         83
  36.4856         83
  36.5042         81
  36.5228         93
  36.5414        102
  36.5599         97
  36.5785        106
  36.5971         95
  36.6157         90
  36.6342         82
  36.6528         96
  36.6714         92
  36.6900         99
  36.7085         98
  36.7271        100
  36.7457         91
  36.7643         87
  36.7829        100
  36.8014         86
  36.8200         89
  36.8386         89
  36.8572        102
  36.8757         96
  36.8943         89
  36.9129         71
  36.9315         91
  36.9500         92
  36.9686        102
  36.9872         93
  37.0058         94
  37.0243         97
  37.0429         83
  37.0615         95
  37.0801         98
  37.0986         90
  37.1172        102
  37.1358         86
  37.1544         97
  37.1729         97
  37.1915         72
  37.2101        109
  37.2287         82
  37.2472         94
  37.2658         96
  37.2844         82
  37.3030         88
  37.3215        101
  37.3401        101
  37.3587        110
  37.3773        107
  37.3958        119
  37.4144        126
  37.4330        134
  37.4516        146
  37.4701        119
  37.4887        122
  37.5073        116
  37.5259        108
  37.5445        119
  37.5630        114
  37.5816        109
  37.6002         87
  37.6188         81
  37.6373         86
  37.6559         95
  37.6745         88
  37.6931         75
  37.7116         70
  37.7302         92
  37.7488         76
  37.7674         87
  37.7859         87
  37.8045         92
  37.8231         89
  37.8417         89
  37.8602         88
  37.8788         82
  37.8974         81
  37.9160         87
  37.9345         79
  37.9531         78
  37.9717        101
  37.9903         80
  38.0088         70
  38.0274         78
  38.0460         78
  38.0646         87
  38.0831         91
  38.1017         80
  38.1203         87
  38.1389         99
  38.1574         90
  38.1760         82
  38.1946         88
  38.2132         81
  38.2317         90
  38.2503         83
  38.2689         93
  38.2875         73
  38.3061         79
  38.3246         87
  38.3432         81
  38.3618         77
  38.3804         73
  38.3989         69
  38.4175         79
  38.4361         90
  38.4547         87
  38.4732         92
  38.4918         78
  38.5104         93
  38.5290         93
  38.5475         74
  38.5661         73
  38.5847         67
  38.6033         90
  38.6218         94
  38.6404         85
  38.6590         85
  38.6776         75
  38.6961         78
  38.7147         93
  38.7333         94
  38.7519         74
  38.7704         82
  38.7890         71
  38.8076         97
  38.8262         88
  38.8447        103
  38.8633         84
  38.8819         83
  38.9005         80
  38.9190         73
  38.9376         91
  38.9562         96
  38.9748         87
  38.9933         78
  39.0119         92
  39.0305         70
  39.0491         87
  39.0677         75
  39.0862         84
  39.1048         87
  39.1234         72
  39.1420         81
  39.1605         78
  39.1791         89
  39.1977         64
  39.2163         71
  39.2348         92
  39.2534         66
  39.2720         70
  39.2906         87
  39.3091         66
  39.3277         79
  39.3463         83
  39.3649         66
  39.3834         70
  39.4020         90
  39.4206         90
  39.4392         79
  39.4577         89
  39.4763         98
  39.4949         72
  39.5135         71
  39.5320         85
  39.5506         84
  39.5692         81
  39.5878         74
  39.6063         83
  39.6249         86
  39.6435         62
  39.6621         78
  39.6806         69
  39.6992         98
  39.7178         74
  39.7364         92
  39.7549         76
  39.7735         84
  39.7921         72
  39.8107         70
  39.8293         77
  39.8478         85
  39.8664         70
  39.8850         83
  39.9036         88
  39.9221         70
  39.9407         75
  39.9593         76
  39.9779         72
  39.9964         63
  40.0150         69
  40.0336         63
  40.0522         71
  40.0707         88
  40.0893         94
  40.1079         83
  40.1265         76
  40.1450         81
  40.1636         76
  40.1822         69
  40.2008         71
  40.2193         78
  40.2379         65
  40.2565         64
  40.2751         90
  40.2936         82
  40.3122         74
  40.3308         82
  40.3494         65
  40.3679         73
  40.3865         82
  40.4051         77
  40.4237         73
  40.4422         72
  40.4608         83
  40.4794         63
  40.4980         83
  40.5165         79
  40.5351         77
  40.5537         69
  40.5723         68
  40.5908         69
  40.6094         72
  40.6280         82
  40.6466         73
  40.6652         73
  40.6837        100
  40.7023         72
  40.7209         79
  40.7395         78
  40.7580         65
  40.7766         84
  40.7952         77
  40.8138         73
  40.8323         79
  40.8509         94
  40.8695         77
  40.8881         79
  40.9066         74
  40.9252         76
  40.9438         79
  40.9624        100
  40.9809         85
  40.9995         85
  41.0181         85
  41.0367         82
  41.0552         78
  41.0738         66
  41.0924         78
  41.1110         69
  41.1295         83
  41.1481         61
  41.1667         65
  41.1853         66
  41.2038         81
  41.2224         82
  41.2410         99
  41.2596         63
  41.2781         59
  41.2967         77
  41.3153         76
  41.3339         72
  41.3524         80
  41.3710         57
  41.3896         71
  41.4082         80
  41.4268         78
  41.4453         71
  41.4639         80
  41.4825         74
  41.5011         72
  41.5196         77
  41.5382         73
  41.5568         80
  41.5754         75
  41.5939         91
  41.6125         91
  41.6311         86
  41.6497         68
  41.6682         77
  41.6868         72
  41.7054         71
  41.7240         82
  41.7425         70
  41.7611         67
  41.7797         66
  41.7983         65
  41.8168         58
  41.8354         62
  41.8540         82
  41.8726         74
  41.8911         79
  41.9097         68
  41.9283         83
  41.9469         58
  41.9654         71
  41.9840         60
  42.0026         73
  42.0212         76
  42.0397         72
  42.0583         72
  42.0769         65
  42.0955         78
  42.1140         89
  42.1326         75
  42.1512         67
  42.1698         76
  42.1884         73
  42.2069         74
  42.2255         92
  42.2441         73
  42.2627         77
  42.2812         88
  42.2998         73
  42.3184         73
  42.3370         80
  42.3555         69
  42.3741         67
  42.3927         84
  42.4113         73
  42.4298         83
  42.4484         75
  42.4670         75
  42.4856         79
  42.5041         81
  42.5227         78
  42.5413         73
  42.5599         86
  42.5784         82
  42.5970         73
  42.6156         62
  42.6342         77
  42.6527         76
  42.6713         62
  42.6899         66
  42.7085         66
  42.7270         72
  42.7456         86
  42.7642         67
  42.7828         92
  42.8013         68
  42.8199         93
  42.8385         83
  42.8571         82
  42.8756         71
  42.8942         73
  42.9128         81
  42.9314         79
  42.9500         77
  42.9685         72
  42.9871         67
  43.0057         77
  43.0243         68
  43.0428         76
  43.0614         61
  43.0800         75
  43.0986         83
  43.1171         76
  43.1357         69
  43.1543         82
  43.1729         87
  43.1914         79
  43.2100         90
  43.2286         86
  43.2472         83
  43.2657         70
  43.2843         81
  43.3029        100
  43.3215         73
  43.3400         99
  43.3586         84
  43.3772         90
  43.3958         81
  43.4143         93
  43.4329         74
  43.4515         95
  43.4701         98
  43.4886        112
  43.5072        151
  43.5258        122
  43.5444        103
  43.5629         78
  43.5815        104
  43.6001         95
  43.6187        125
  43.6372        104
  43.6558         98
  43.6744         83
  43.6930         75
  43.7116         81
  43.7301         77
  43.7487         79
  43.7673         75
  43.7859         61
  43.8044         63
  43.8230         79
  43.8416         58
  43.8602         68
  43.8787         88
  43.8973         83
  43.9159         73
  43.9345         82
  43.9530         59
  43.9716         68
  43.9902         70
  44.0088         69
  44.0273         83
  44.0459         77
  44.0645         75
  44.0831         68
  44.1016         71
  44.1202         79
  44.1388        101
  44.1574         66
  44.1759         77
  44.1945         77
  44.2131         72
  44.2317         83
  44.2502         78
  44.2688         75
  44.2874         80
  44.3060         80
  44.3245         83
  44.3431         90
  44.3617         74
  44.3803         73
  44.3988         77
  44.4174         77
  44.4360         70
  44.4546         75
  44.4732         81
  44.4917         69
  44.5103         79
  44.5289         70
  44.5475         79
  44.5660         90
  44.5846         66
  44.6032         67
  44.6218         75
  44.6403         94
  44.6589         90
  44.6775         75
  44.6961         90
  44.7146         71
  44.7332         79
  44.7518         66
  44.7704         69
  44.7889         72
  44.8075         70
  44.8261         75
  44.8447         73
  44.8632         55
  44.8818         89
  44.9004         61
  44.9190         68
  44.9375         67
  44.9561         72
  44.9747         66
  44.9933         74
  45.0118         76
  45.0304         89
  45.0490         70
  45.0676         62
  45.0861         61
  45.1047         77
  45.1233         83
  45.1419         75
  45.1604         60
  45.1790         70
  45.1976         71
  45.2162         84
  45.2347         67
  45.2533         78
  45.2719         60
  45.2905         73
  45.3091         77
  45.3276         59
  45.3462         66
  45.3648         53
  45.3834         88
  45.4019         69
  45.4205         70
  45.4391         59
  45.4577         66
  45.4762         62
  45.4948         71
  45.5134         62
  45.5320         66
  45.5505         56
  45.5691         64
  45.5877         50
  45.6063         78
  45.6248         71
  45.6434         63
  45.6620         69
  45.6806         87
  45.6991         75
  45.7177         81
  45.7363         78
  45.7549         49
  45.7734         63
  45.7920         66
  45.8106         73
  45.8292         67
  45.8477         68
  45.8663         59
  45.8849         77
  45.9035         65
  45.9220         70
  45.9406         68
  45.9592         64
  45.9778         62
  45.9963         81
  46.0149         69
  46.0335         71
  46.0521         76
  46.0707         65
  46.0892         63
  46.1078         56
  46.1264         53
  46.1450         63
  46.1635         65
  46.1821         71
  46.2007         84
  46.2193         48
  46.2378         77
  46.2564         72
  46.2750         62
  46.2936         62
  46.3121         73
  46.3307         72
  46.3493         79
  46.3679         56
  46.3864         66
  46.4050         65
  46.4236         56
  46.4422         50
  46.4607         52
  46.4793         74
  46.4979         56
  46.5165         64
  46.5350         65
  46.5536         80
  46.5722         58
  46.5908         53
  46.6093         71
  46.6279         79
  46.6465         65
  46.6651         78
  46.6836         57
  46.7022         66
  46.7208         53
  46.7394         67
  46.7579         59
  46.7765         55
  46.7951         72
  46.8137         70
  46.8323         71
  46.8508         60
  46.8694         67
  46.8880         74
  46.9066         73
  46.9251         62
  46.9437         60
  46.9623         79
  46.9809         74
  46.9994         70
  47.0180         66
  47.0366         61
  47.0552         81
  47.0737         57
  47.0923         49
  47.1109         86
  47.1295         64
  47.1480         65
  47.1666         68
  47.1852         70
  47.2038         65
  47.2223         63
  47.2409         76
  47.2595         79
  47.2781         55
  47.2966         64
  47.3152         60
  47.3338         69
  47.3524         62
  47.3709         63
  47.3895         81
  47.4081         61
  47.4267         79
  47.4452         67
  47.4638         69
  47.4824         68
  47.5010         61
  47.5195         68
  47.5381         67
  47.5567         64
  47.5753         49
  47.5939         55
  47.6124         56
  47.6310         58
  47.6496         68
  47.6682         67
  47.6867         66
  47.7053         66
  47.7239         70
  47.7425         59
  47.7610         74
  47.7796         55
  47.7982         65
  47.8168         59
  47.8353         64
  47.8539         63
  47.8725         58
  47.8911         64
  47.9096         63
  47.9282         52
  47.9468         52
  47.9654         68
  47.9839         53
  48.0025         65
  48.0211         69
  48.0397         69
  48.0582         42
  48.0768         61
  48.0954         61
  48.1140         73
  48.1325         64
  48.1511         75
  48.1697         71
  48.1883         61
  48.2068         67
  48.2254         56
  48.2440         59
  48.2626         63
  48.2811         66
  48.2997         51
  48.3183         61
  48.3369         64
  48.3555         61
  48.3740         69
  48.3926         61
  48.4112         55
  48.4298         63
  48.4483         63
  48.4669         53
  48.4855         70
  48.5041         53
  48.5226         63
  48.5412         77
  48.5598         67
  48.5784         67
  48.5969         70
  48.6155         68
  48.6341         72
  48.6527         58
  48.6712         70
  48.6898         71
  48.7084         70
  48.7270         62
  48.7455         53
  48.7641         62
  48.7827         57
  48.8013         54
  48.8198         55
  48.8384         77
  48.8570         68
  48.8756         69
  48.8941         72
  48.9127         78
  48.9313        105
  48.9499        106
  48.9684        123
  48.9870        112
  49.0056        101
  49.0242         78
  49.0427         81
  49.0613         97
  49.0799         90
  49.0985         92
  49.1171         79
  49.1356         64
  49.1542         49
  49.1728         54
  49.1914         67
  49.2099         66
  49.2285         68
  49.2471         81
  49.2657         71
  49.2842         64
  49.3028         63
  49.3214         71
  49.3400         76
  49.3585         70
  49.3771         60
  49.3957         67
  49.4143         77
  49.4328         75
  49.4514         70
  49.4700         54
  49.4886         67
  49.5071         47
  49.5257         54
  49.5443         57
  49.5629         64
  49.5814         61
  49.6000         59
  49.6186         71
  49.6372         66
  49.6557         64
  49.6743         64
  49.6929         64
  49.7115         71
  49.7300         49
  49.7486         48
  49.7672         64
  49.7858         60
  49.8043         62
  49.8229         59
  49.8415         67
  49.8601         56
  49.8786         59
  49.8972         64
  49.9158         62
  49.9344         60
  49.9530         62
  49.9715         54
  49.9901         63
  50.0087         69
  50.0273         53
  50.0458         53
  50.0644         84
  50.0830         69
  50.1016         52
  50.1201         59
  50.1387         60
  50.1573         72
  50.1759         53
  50.1944         73
  50.2130         61
  50.2316         73
  50.2502         72
  50.2687         60
  50.2873         73
  50.3059         71
  50.3245         49
  50.3430         70
  50.3616         71
  50.3802         59
  50.3988         53
  50.4173         65
  50.4359         67
  50.4545         71
  50.4731         70
  50.4916         47
  50.5102         61
  50.5288         65
  50.5474         56
  50.5659         52
  50.5845         40
  50.6031         46
  50.6217         54
  50.6402         59
  50.6588         54
  50.6774         65
  50.6960         55
  50.7146         51
  50.7331         51
  50.7517         70
  50.7703         50
  50.7889         64
  50.8074         61
  50.8260         54
  50.8446         54
  50.8632         63
  50.8817         52
  50.9003         65
  50.9189         64
  50.9375         63
  50.9560         52
  50.9746         54
  50.9932         52
  51.0118         56
  51.0303         46
  51.0489         75
  51.0675         59
  51.0861         68
  51.1046         50
  51.1232         52
  51.1418         66
  51.1604         73
  51.1789         59
  51.1975         61
  51.2161         55
  51.2347         66
  51.2532         61
  51.2718         57
  51.2904         64
  51.3090         68
  51.3275         71
  51.3461         65
  51.3647         63
  51.3833         82
  51.4018         59
  51.4204         71
  51.4390         84
  51.4576         64
  51.4762         78
  51.4947         66
  51.5133         58
  51.5319         67
  51.5505         59
  51.5690         58
  51.5876         66
  51.6062         65
  51.6248         74
  51.6433         62
  51.6619         64
  51.6805         70
  51.6991         54
  51.7176         56
  51.7362         61
  51.7548         60
  51.7734         54
  51.7919         57
  51.8105         53
  51.8291         82
  51.8477         72
  51.8662         54
  51.8848         63
  51.9034         64
  51.9220         61
  51.9405         58
  51.9591         64
  51.9777         71
  51.9963         60
  52.0148         66
  52.0334         60
  52.0520         59
  52.0706         58
  52.0891         53
  52.1077         53
  52.1263         59
  52.1449         53
  52.1634         59
  52.1820         70
  52.2006         55
  52.2192         59
  52.2378         47
  52.2563         59
  52.2749         58
  52.2935         60
  52.3121         65
  52.3306         41
  52.3492         62
  52.3678         64
  52.3864         55
  52.4049         55
  52.4235         52
  52.4421         54
  52.4607         48
  52.4792         62
  52.4978         75
  52.5164         61
  52.5350         49
  52.5535         52
  52.5721         58
  52.5907         57
  52.6093         51
  52.6278         60
  52.6464         55
  52.6650         51
  52.6836         59
  52.7021         54
  52.7207         54
  52.7393         43
  52.7579         61
  52.7764         57
  52.7950         60
  52.8136         56
  52.8322         59
  52.8507         67
  52.8693         54
  52.8879         36
  52.9065         72
  52.9250         62
  52.9436         71
  52.9622         66
  52.9808         64
  52.9994         65
  53.0179         63
  53.0365         81
  53.0551         58
  53.0737         66
  53.0922         61
  53.1108         66
  53.1294         54
  53.1480         64
  53.1665         49
  53.1851         57
  53.2037         78
  53.2223         51
  53.2408         65
  53.2594         49
  53.2780         67
  53.2966         54
  53.3151         65
  53.3337         57
  53.3523         59
  53.3709         61
  53.3894         54
  53.4080         69
  53.4266         55
  53.4452         62
  53.4637         55
  53.4823         66
  53.5009         52
  53.5195         56
  53.5380         66
  53.5566         50
  53.5752         65
  53.5938         61
  53.6123         70
  53.6309         58
  53.6495         50
  53.6681         63
  53.6866         67
  53.7052         61
  53.7238         60
  53.7424         59
  53.7610         74
  53.7795         57
  53.7981         49
  53.8167         67
  53.8353         65
  53.8538         60
  53.8724         48
  53.8910         55
  53.9096         76
  53.9281         58
  53.9467         56
  53.9653         79
  53.9839         72
  54.0024         81
  54.0210         76
  54.0396         56
  54.0582         72
  54.0767         64
  54.0953         66
  54.1139         66
  54.1325         69
  54.1510         82
  54.1696         68
  54.1882         71
  54.2068         67
  54.2253         67
  54.2439         51
  54.2625         50
  54.2811         54
  54.2996         47
  54.3182         68
  54.3368         54
  54.3554         47
  54.3739         56
  54.3925         53
  54.4111         62
  54.4297         58
  54.4482         66
  54.4668         56
  54.4854         46
  54.5040         67
  54.5225         55
  54.5411         60
  54.5597         46
  54.5783         52
  54.5969         59
  54.6154         47
  54.6340         69
  54.6526         68
  54.6712         62
  54.6897         56
  54.7083         64
  54.7269         73
  54.7455         59
  54.7640         63
  54.7826         52
  54.8012         55
  54.8198         57
  54.8383         55
  54.8569         59
  54.8755         52
  54.8941         48
  54.9126         51
  54.9312         65
  54.9498         58
  54.9684         60
  54.9869         48
  55.0055         59
  55.0241         61
  55.0427         50
  55.0612         50
  55.0798         45
  55.0984         44
  55.1170         37
  55.1355         44
  55.1541         50
  55.1727         67
  55.1913         46
  55.2098         52
  55.2284         57
  55.2470         61
  55.2656         61
  55.2841         51
  55.3027         66
  55.3213         58
  55.3399         56
  55.3585         50
  55.3770         55
  55.3956         55
  55.4142         54
  55.4328         58
  55.4513         55
  55.4699         76
  55.4885         60
  55.5071         70
  55.5256         71
  55.5442         44
  55.5628         52
  55.5814         67
  55.5999         80
  55.6185         66
  55.6371         43
  55.6557         53
  55.6742         59
  55.6928         63
  55.7114         52
  55.7300         56
  55.7485         58
  55.7671         47
  55.7857         47
  55.8043         59
  55.8228         54
  55.8414         48
  55.8600         65
  55.8786         50
  55.8971         54
  55.9157         57
  55.9343         65
  55.9529         55
  55.9714         49
  55.9900         61
  56.0086         47
  56.0272         50
  56.0457         55
  56.0643         51
  56.0829         79
  56.1015         56
  56.1201         57
  56.1386         52
  56.1572         61
  56.1758         53
  56.1944         59
  56.2129         65
  56.2315         60
  56.2501         64
  56.2687         71
  56.2872         68
  56.3058         60
  56.3244         66
  56.3430         53
  56.3615         56
  56.3801         53
  56.3987         59
  56.4173         58
  56.4358         65
  56.4544         60
  56.4730         71
  56.4916         55
  56.5101         53
  56.5287         56
  56.5473         73
  56.5659         57
  56.5844         73
  56.6030         56
  56.6216         60
  56.6402         69
  56.6587         65
  56.6773         46
  56.6959         64
  56.7145         42
  56.7330         67
  56.7516         49
  56.7702         45
  56.7888         65
  56.8073         52
  56.8259         57
  56.8445         60
  56.8631         58
  56.8817         51
  56.9002         57
  56.9188         57
  56.9374         43
  56.9560         55
  56.9745         53
  56.9931         47
  57.0117         70
  57.0303         50
  57.0488         72
  57.0674         54
  57.0860         55
  57.1046         54
  57.1231         49
  57.1417         59
  57.1603         52
  57.1789         63
  57.1974         59
  57.2160         44
  57.2346         60
  57.2532         46
  57.2717         62
  57.2903         48
  57.3089         49
  57.3275         50
  57.3460         49
  57.3646         42
  57.3832         63
  57.4018         43
  57.4203         59
  57.4389         45
  57.4575         67
  57.4761         51
  57.4946         62
  57.5132         53
  57.5318         57
  57.5504         56
  57.5689         56
  57.5875         64
  57.6061         53
  57.6247         62
  57.6433         42
  57.6618         76
  57.6804         53
  57.6990         59
  57.7176         59
  57.7361         64
  57.7547         53
  57.7733         59
  57.7919         62
  57.8104         81
  57.8290         63
  57.8476         35
  57.8662         56
  57.8847         60
  57.9033         55
  57.9219         55
  57.9405         57
  57.9590         59
  57.9776         43
  57.9962         53
  58.0148         52
  58.0333         59
  58.0519         66
  58.0705         44
  58.0891         66
  58.1076         59
  58.1262         62
  58.1448         49
  58.1634         42
  58.1819         52
  58.2005         55
  58.2191         58
  58.2377         49
  58.2562         61
  58.2748         45
  58.2934         56
  58.3120         55
  58.3305         52
  58.3491         50
  58.3677         57
  58.3863         58
  58.4049         58
  58.4234         52
  58.4420         59
  58.4606         63
  58.4792         53
  58.4977         59
  58.5163         54
  58.5349         49
  58.5535         57
  58.5720         54
  58.5906         57
  58.6092         49
  58.6278         63
  58.6463         58
  58.6649         46
  58.6835         61
  58.7021         44
  58.7206         48
  58.7392         50
  58.7578         60
  58.7764         50
  58.7949         58
  58.8135         58
  58.8321         43
  58.8507         43
  58.8692         43
  58.8878         57
  58.9064         50
  58.9250         52
  58.9435         41
  58.9621         53
  58.9807         50
  58.9993         38
  59.0178         64
  59.0364         70
  59.0550         53
  59.0736         63
  59.0921         75
  59.1107         59
  59.1293         62
  59.1479         53
  59.1664         55
  59.1850         72
  59.2036         53
  59.2222         52
  59.2408         52
  59.2593         57
  59.2779         57
  59.2965         54
  59.3151         58
  59.3336         62
  59.3522         52
  59.3708         62
  59.3894         45
  59.4079         47
  59.4265         45
  59.4451         61
  59.4637         48
  59.4822         55
  59.5008         56
  59.5194         52
  59.5380         57
  59.5565         59
  59.5751         58
  59.5937         55
  59.6123         50
  59.6308         53
  59.6494         48
  59.6680         61
  59.6866         57
  59.7051         51
  59.7237         59
  59.7423         75
  59.7609         57
  59.7794         50
  59.7980         60
  59.8166         64
  59.8352         62
  59.8537         59
  59.8723         49
  59.8909         69
  59.9095         43
  59.9280         63
  59.9466         63
  59.9652         45
  59.9838         48
  60.0024         68
