;,2THETA,
5.0000,109
5.0186,92
5.0372,91
5.0557,92
5.0743,103
5.0929,92
5.1115,96
5.1300,116
5.1486,96
5.1672,96
5.1858,102
5.2043,86
5.2229,96
5.2415,88
5.2601,82
5.2786,70
5.2972,79
5.3158,80
5.3344,94
5.3529,94
5.3715,88
5.3901,98
5.4087,91
5.4272,90
5.4458,102
5.4644,79
5.4830,82
5.5015,105
5.5201,66
5.5387,81
5.5573,98
5.5758,76
5.5944,79
5.6130,87
5.6316,73
5.6501,71
5.6687,81
5.6873,89
5.7059,76
5.7244,99
5.7430,81
5.7616,85
5.7802,72
5.7988,77
5.8173,91
5.8359,62
5.8545,72
5.8731,66
5.8916,71
5.9102,72
5.9288,67
5.9474,64
5.9659,72
5.9845,76
6.0031,65
6.0217,77
6.0402,86
6.0588,65
6.0774,70
6.0960,83
6.1145,61
6.1331,77
6.1517,73
6.1703,62
6.1888,66
6.2074,63
6.2260,72
6.2446,62
6.2631,79
6.2817,77
6.3003,63
6.3189,67
6.3374,67
6.3560,63
6.3746,77
6.3932,62
6.4117,67
6.4303,81
6.4489,59
6.4675,53
6.4860,63
6.5046,46
6.5232,56
6.5418,63
6.5604,62
6.5789,74
6.5975,62
6.6161,68
6.6347,65
6.6532,64
6.6718,68
6.6904,61
6.7090,70
6.7275,57
6.7461,61
6.7647,54
6.7833,67
6.8018,59
6.8204,55
6.8390,63
6.8576,60
6.8761,65
6.8947,62
6.9133,64
6.9319,55
6.9504,53
6.9690,59
6.9876,57
7.0062,55
7.0247,70
7.0433,56
7.0619,59
7.0805,54
7.0990,51
7.1176,55
7.1362,59
7.1548,45
7.1733,58
7.1919,54
7.2105,74
7.2291,63
7.2476,55
7.2662,65
7.2848,61
7.3034,66
7.3220,49
7.3405,56
7.3591,74
7.3777,42
7.3963,52
7.4148,57
7.4334,75
7.4520,64
7.4706,62
7.4891,53
7.5077,72
7.5263,61
7.5449,68
7.5634,58
7.5820,54
7.6006,58
7.6192,55
7.6377,75
7.6563,66
7.6749,45
7.6935,60
7.7120,70
7.7306,70
7.7492,65
7.7678,52
7.7863,58
7.8049,74
7.8235,69
7.8421,62
7.8606,65
7.8792,64
7.8978,56
7.9164,55
7.9349,73
7.9535,61
7.9721,63
7.9907,65
8.0092,65
8.0278,61
8.0464,68
8.0650,75
8.0835,76
8.1021,71
8.1207,80
8.1393,59
8.1579,77
8.1764,65
8.1950,65
8.2136,62
8.2322,69
8.2507,78
8.2693,85
8.2879,66
8.3065,72
8.3250,78
8.3436,85
8.3622,67
8.3808,69
8.3993,77
8.4179,53
8.4365,64
8.4551,72
8.4736,60
8.4922,58
8.5108,70
8.5294,80
8.5479,77
8.5665,85
8.5851,83
8.6037,61
8.6222,73
8.6408,68
8.6594,81
8.6780,75
8.6965,71
8.7151,71
8.7337,71
8.7523,70
8.7708,70
8.7894,69
8.8080,93
8.8266,80
8.8451,74
8.8637,69
8.8823,74
8.9009,80
8.9195,70
8.9380,81
8.9566,81
8.9752,88
8.9938,83
9.0123,71
9.0309,72
9.0495,69
9.0681,95
9.0866,81
9.1052,80
9.1238,78
9.1424,76
9.1609,72
9.1795,67
9.1981,72
9.2167,85
9.2352,86
9.2538,90
9.2724,74
9.2910,62
9.3095,86
9.3281,83
9.3467,65
9.3653,84
9.3838,85
9.4024,63
9.4210,87
9.4396,90
9.4581,74
9.4767,77
9.4953,82
9.5139,76
9.5324,100
9.5510,67
9.5696,86
9.5882,87
9.6067,90
9.6253,72
9.6439,91
9.6625,102
9.6811,90
9.6996,76
9.7182,80
9.7368,68
9.7554,91
9.7739,79
9.7925,81
9.8111,100
9.8297,85
9.8482,73
9.8668,96
9.8854,83
9.9040,82
9.9225,93
9.9411,86
9.9597,85
9.9783,84
9.9968,104
10.0154,87
10.0340,88
10.0526,76
10.0711,81
10.0897,92
10.1083,68
10.1269,72
10.1454,96
10.1640,89
10.1826,84
10.2012,92
10.2197,90
10.2383,78
10.2569,82
10.2755,90
10.2940,76
10.3126,105
10.3312,84
10.3498,72
10.3683,82
10.3869,96
10.4055,98
10.4241,94
10.4427,96
10.4612,92
10.4798,73
10.4984,96
10.5170,92
10.5355,86
10.5541,91
10.5727,74
10.5913,86
10.6098,78
10.6284,83
10.6470,96
10.6656,92
10.6841,68
10.7027,91
10.7213,90
10.7399,87
10.7584,86
10.7770,81
10.7956,90
10.8142,106
10.8327,77
10.8513,92
10.8699,97
10.8885,92
10.9070,104
10.9256,92
10.9442,79
10.9628,92
10.9813,72
10.9999,83
11.0185,88
11.0371,93
11.0556,79
11.0742,103
11.0928,98
11.1114,92
11.1299,81
11.1485,77
11.1671,78
11.1857,84
11.2043,68
11.2228,69
11.2414,74
11.2600,88
11.2786,94
11.2971,87
11.3157,85
11.3343,84
11.3529,79
11.3714,91
11.3900,76
11.4086,85
11.4272,87
11.4457,78
11.4643,67
11.4829,88
11.5015,94
11.5200,94
11.5386,77
11.5572,84
11.5758,92
11.5943,88
11.6129,80
11.6315,95
11.6501,100
11.6686,78
11.6872,83
11.7058,81
11.7244,73
11.7429,99
11.7615,84
11.7801,67
11.7987,69
11.8172,72
11.8358,79
11.8544,82
11.8730,96
11.8915,89
11.9101,69
11.9287,76
11.9473,71
11.9659,93
11.9844,87
12.0030,66
12.0216,76
12.0402,84
12.0587,82
12.0773,81
12.0959,57
12.1145,74
12.1330,74
12.1516,81
12.1702,82
12.1888,69
12.2073,78
12.2259,78
12.2445,75
12.2631,84
12.2816,77
12.3002,86
12.3188,91
12.3374,73
12.3559,67
12.3745,89
12.3931,93
12.4117,81
12.4302,68
12.4488,87
12.4674,73
12.4860,91
12.5045,76
12.5231,81
12.5417,74
12.5603,89
12.5788,63
12.5974,77
12.6160,72
12.6346,81
12.6531,83
12.6717,66
12.6903,76
12.7089,69
12.7274,76
12.7460,74
12.7646,85
12.7832,59
12.8018,84
12.8203,81
12.8389,95
12.8575,67
12.8761,88
12.8946,75
12.9132,76
12.9318,75
12.9504,77
12.9689,68
12.9875,73
13.0061,72
13.0247,64
13.0432,66
13.0618,62
13.0804,82
13.0990,77
13.1175,72
13.1361,81
13.1547,75
13.1733,72
13.1918,84
13.2104,79
13.2290,84
13.2476,81
13.2661,65
13.2847,64
13.3033,61
13.3219,71
13.3404,82
13.3590,78
13.3776,58
13.3962,64
13.4147,71
13.4333,66
13.4519,75
13.4705,58
13.4890,69
13.5076,71
13.5262,70
13.5448,78
13.5634,66
13.5819,75
13.6005,94
13.6191,72
13.6377,73
13.6562,84
13.6748,53
13.6934,81
13.7120,66
13.7305,60
13.7491,69
13.7677,65
13.7863,69
13.8048,68
13.8234,75
13.8420,70
13.8606,69
13.8791,60
13.8977,66
13.9163,57
13.9349,62
13.9534,68
13.9720,69
13.9906,78
14.0092,75
14.0277,70
14.0463,54
14.0649,66
14.0835,78
14.1020,53
14.1206,58
14.1392,65
14.1578,51
14.1763,67
14.1949,56
14.2135,77
14.2321,58
14.2506,54
14.2692,61
14.2878,68
14.3064,69
14.3250,62
14.3435,58
14.3621,74
14.3807,74
14.3993,70
14.4178,82
14.4364,68
14.4550,64
14.4736,68
14.4921,71
14.5107,66
14.5293,62
14.5479,41
14.5664,55
14.5850,57
14.6036,67
14.6222,65
14.6407,61
14.6593,72
14.6779,60
14.6965,55
14.7150,61
14.7336,65
14.7522,61
14.7708,49
14.7893,57
14.8079,81
14.8265,62
14.8451,59
14.8636,62
14.8822,59
14.9008,58
14.9194,65
14.9379,63
14.9565,71
14.9751,51
14.9937,60
15.0122,54
15.0308,56
15.0494,59
15.0680,57
15.0866,70
15.1051,71
15.1237,67
15.1423,51
15.1609,63
15.1794,61
15.1980,44
15.2166,65
15.2352,51
15.2537,53
15.2723,66
15.2909,65
15.3095,62
15.3280,56
15.3466,70
15.3652,61
15.3838,59
15.4023,64
15.4209,50
15.4395,51
15.4581,56
15.4766,50
15.4952,61
15.5138,49
15.5324,56
15.5509,67
15.5695,69
15.5881,63
15.6067,64
15.6252,54
15.6438,53
15.6624,58
15.6810,58
15.6995,66
15.7181,63
15.7367,61
15.7553,62
15.7738,69
15.7924,66
15.8110,65
15.8296,57
15.8482,68
15.8667,66
15.8853,76
15.9039,65
15.9225,51
15.9410,47
15.9596,48
15.9782,52
15.9968,47
16.0153,54
16.0339,56
16.0525,60
16.0711,61
16.0896,69
16.1082,69
16.1268,69
16.1454,47
16.1639,57
16.1825,64
16.2011,56
16.2197,67
16.2382,68
16.2568,45
16.2754,56
16.2940,71
16.3125,62
16.3311,65
16.3497,48
16.3683,51
16.3868,62
16.4054,50
16.4240,63
16.4426,60
16.4611,53
16.4797,57
16.4983,67
16.5169,77
16.5354,58
16.5540,48
16.5726,66
16.5912,59
16.6097,60
16.6283,70
16.6469,56
16.6655,70
16.6841,61
16.7026,52
16.7212,69
16.7398,64
16.7584,71
16.7769,50
16.7955,37
16.8141,56
16.8327,60
16.8512,49
16.8698,50
16.8884,61
16.9070,51
16.9255,82
16.9441,65
16.9627,65
16.9813,67
16.9998,54
17.0184,58
17.0370,60
17.0556,57
17.0741,67
17.0927,55
17.1113,56
17.1299,65
17.1484,56
17.1670,53
17.1856,59
17.2042,63
17.2227,64
17.2413,67
17.2599,65
17.2785,45
17.2970,54
17.3156,64
17.3342,62
17.3528,61
17.3713,69
17.3899,60
17.4085,49
17.4271,48
17.4457,73
17.4642,58
17.4828,55
17.5014,62
17.5200,63
17.5385,47
17.5571,61
17.5757,64
17.5943,60
17.6128,57
17.6314,55
17.6500,63
17.6686,70
17.6871,67
17.7057,63
17.7243,56
17.7429,70
17.7614,52
17.7800,58
17.7986,69
17.8172,60
17.8357,64
17.8543,54
17.8729,49
17.8915,58
17.9100,64
17.9286,64
17.9472,52
17.9658,61
17.9843,60
18.0029,45
18.0215,49
18.0401,57
18.0586,64
18.0772,50
18.0958,60
18.1144,57
18.1329,52
18.1515,74
18.1701,60
18.1887,56
18.2073,59
18.2258,55
18.2444,75
18.2630,70
18.2816,50
18.3001,56
18.3187,60
18.3373,57
18.3559,60
18.3744,66
18.3930,62
18.4116,52
18.4302,48
18.4487,72
18.4673,68
18.4859,56
18.5045,62
18.5230,50
18.5416,63
18.5602,67
18.5788,68
18.5973,67
18.6159,78
18.6345,71
18.6531,51
18.6716,56
18.6902,66
18.7088,70
18.7274,62
18.7459,52
18.7645,70
18.7831,62
18.8017,69
18.8202,64
18.8388,56
18.8574,59
18.8760,57
18.8945,63
18.9131,63
18.9317,59
18.9503,64
18.9689,55
18.9874,54
19.0060,63
19.0246,69
19.0432,55
19.0617,71
19.0803,71
19.0989,69
19.1175,55
19.1360,69
19.1546,56
19.1732,56
19.1918,64
19.2103,69
19.2289,59
19.2475,65
19.2661,64
19.2846,69
19.3032,60
19.3218,64
19.3404,66
19.3589,48
19.3775,60
19.3961,75
19.4147,52
19.4332,64
19.4518,77
19.4704,61
19.4890,68
19.5075,66
19.5261,57
19.5447,66
19.5633,65
19.5818,53
19.6004,65
19.6190,55
19.6376,57
19.6561,55
19.6747,68
19.6933,60
19.7119,56
19.7305,71
19.7490,63
19.7676,72
19.7862,59
19.8048,49
19.8233,64
19.8419,57
19.8605,50
19.8791,65
19.8976,75
19.9162,59
19.9348,59
19.9534,68
19.9719,59
19.9905,67
20.0091,66
20.0277,78
20.0462,53
20.0648,59
20.0834,68
20.1020,67
20.1205,63
20.1391,76
20.1577,57
20.1763,72
20.1948,84
20.2134,62
20.2320,72
20.2506,79
20.2691,57
20.2877,66
20.3063,58
20.3249,73
20.3434,63
20.3620,56
20.3806,59
20.3992,57
20.4177,77
20.4363,71
20.4549,63
20.4735,71
20.4921,63
20.5106,78
20.5292,73
20.5478,64
20.5664,69
20.5849,57
20.6035,61
20.6221,69
20.6407,68
20.6592,53
20.6778,69
20.6964,74
20.7150,65
20.7335,69
20.7521,84
20.7707,64
20.7893,66
20.8078,69
20.8264,64
20.8450,71
20.8636,66
20.8821,70
20.9007,66
20.9193,66
20.9379,86
20.9564,66
20.9750,58
20.9936,72
21.0122,77
21.0307,75
21.0493,71
21.0679,80
21.0865,91
21.1050,78
21.1236,65
21.1422,88
21.1608,83
21.1793,96
21.1979,102
21.2165,132
21.2351,109
21.2537,121
21.2722,88
21.2908,94
21.3094,119
21.3280,139
21.3465,180
21.3651,184
21.3837,147
21.4023,130
21.4208,126
21.4394,122
21.4580,86
21.4766,95
21.4951,70
21.5137,96
21.5323,88
21.5509,72
21.5694,88
21.5880,71
21.6066,63
21.6252,70
21.6437,68
21.6623,76
21.6809,62
21.6995,71
21.7180,64
21.7366,71
21.7552,73
21.7738,71
21.7923,69
21.8109,71
21.8295,88
21.8481,74
21.8666,71
21.8852,71
21.9038,80
21.9224,64
21.9409,55
21.9595,70
21.9781,59
21.9967,74
22.0152,73
22.0338,60
22.0524,61
22.0710,64
22.0896,60
22.1081,86
22.1267,76
22.1453,79
22.1639,72
22.1824,75
22.2010,81
22.2196,67
22.2382,77
22.2567,72
22.2753,69
22.2939,72
22.3125,73
22.3310,72
22.3496,68
22.3682,69
22.3868,83
22.4053,58
22.4239,79
22.4425,79
22.4611,75
22.4796,74
22.4982,74
22.5168,63
22.5354,81
22.5539,80
22.5725,87
22.5911,84
22.6097,68
22.6282,62
22.6468,74
22.6654,73
22.6840,74
22.7025,79
22.7211,79
22.7397,80
22.7583,68
22.7768,86
22.7954,81
22.8140,72
22.8326,79
22.8512,54
22.8697,62
22.8883,59
22.9069,65
22.9255,71
22.9440,87
22.9626,68
22.9812,68
22.9998,60
23.0183,82
23.0369,69
23.0555,69
23.0741,77
23.0926,76
23.1112,78
23.1298,80
23.1484,81
23.1669,77
23.1855,75
23.2041,78
23.2227,84
23.2412,80
23.2598,68
23.2784,74
23.2970,73
23.3155,71
23.3341,84
23.3527,82
23.3713,74
23.3898,63
23.4084,82
23.4270,72
23.4456,83
23.4641,59
23.4827,97
23.5013,59
23.5199,90
23.5384,74
23.5570,77
23.5756,74
23.5942,70
23.6128,76
23.6313,66
23.6499,85
23.6685,81
23.6871,74
23.7056,76
23.7242,81
23.7428,80
23.7614,84
23.7799,77
23.7985,73
23.8171,74
23.8357,89
23.8542,72
23.8728,81
23.8914,60
23.9100,59
23.9285,81
23.9471,65
23.9657,83
23.9843,70
24.0028,73
24.0214,68
24.0400,62
24.0586,85
24.0771,52
24.0957,76
24.1143,71
24.1329,75
24.1514,72
24.1700,82
24.1886,57
24.2072,66
24.2257,71
24.2443,77
24.2629,85
24.2815,84
24.3000,75
24.3186,77
24.3372,81
24.3558,86
24.3744,84
24.3929,76
24.4115,88
24.4301,57
24.4487,93
24.4672,66
24.4858,81
24.5044,78
24.5230,92
24.5415,93
24.5601,70
24.5787,81
24.5973,94
24.6158,73
24.6344,74
24.6530,87
24.6716,75
24.6901,70
24.7087,71
24.7273,70
24.7459,71
24.7644,64
24.7830,69
24.8016,83
24.8202,86
24.8387,72
24.8573,75
24.8759,66
24.8945,80
24.9130,73
24.9316,68
24.9502,57
24.9688,65
24.9873,77
25.0059,65
25.0245,79
25.0431,73
25.0616,77
25.0802,69
25.0988,77
25.1174,65
25.1360,73
25.1545,89
25.1731,66
25.1917,69
25.2103,72
25.2288,69
25.2474,90
25.2660,72
25.2846,86
25.3031,84
25.3217,48
25.3403,80
25.3589,67
25.3774,71
25.3960,76
25.4146,75
25.4332,69
25.4517,74
25.4703,81
25.4889,67
25.5075,90
25.5260,70
25.5446,96
25.5632,87
25.5818,65
25.6003,81
25.6189,62
25.6375,66
25.6561,67
25.6746,83
25.6932,82
25.7118,82
25.7304,76
25.7489,77
25.7675,66
25.7861,86
25.8047,75
25.8232,57
25.8418,58
25.8604,80
25.8790,69
25.8976,63
25.9161,60
25.9347,73
25.9533,72
25.9719,53
25.9904,88
26.0090,66
26.0276,60
26.0462,66
26.0647,55
26.0833,81
26.1019,62
26.1205,55
26.1390,67
26.1576,48
26.1762,68
26.1948,68
26.2133,65
26.2319,71
26.2505,81
26.2691,61
26.2876,64
26.3062,61
26.3248,75
26.3434,81
26.3619,81
26.3805,64
26.3991,66
26.4177,74
26.4362,68
26.4548,89
26.4734,69
26.4920,65
26.5105,73
26.5291,60
26.5477,57
26.5663,62
26.5848,58
26.6034,71
26.6220,68
26.6406,68
26.6591,80
26.6777,66
26.6963,79
26.7149,59
26.7335,61
26.7520,70
26.7706,60
26.7892,68
26.8078,69
26.8263,86
26.8449,68
26.8635,75
26.8821,66
26.9006,70
26.9192,57
26.9378,71
26.9564,62
26.9749,61
26.9935,65
27.0121,70
27.0307,54
27.0492,49
27.0678,67
27.0864,71
27.1050,81
27.1235,73
27.1421,70
27.1607,56
27.1793,76
27.1978,82
27.2164,100
27.2350,95
27.2536,88
27.2721,66
27.2907,66
27.3093,74
27.3279,73
27.3464,72
27.3650,65
27.3836,57
27.4022,60
27.4207,53
27.4393,71
27.4579,62
27.4765,60
27.4951,61
27.5136,68
27.5322,57
27.5508,66
27.5694,71
27.5879,56
27.6065,50
27.6251,72
27.6437,75
27.6622,75
27.6808,62
27.6994,62
27.7180,63
27.7365,66
27.7551,63
27.7737,64
27.7923,62
27.8108,62
27.8294,61
27.8480,69
27.8666,81
27.8851,61
27.9037,56
27.9223,63
27.9409,59
27.9594,69
27.9780,58
27.9966,64
28.0152,62
28.0337,69
28.0523,60
28.0709,70
28.0895,56
28.1080,71
28.1266,60
28.1452,51
28.1638,67
28.1823,58
28.2009,66
28.2195,71
28.2381,60
28.2567,68
28.2752,67
28.2938,67
28.3124,55
28.3310,75
28.3495,69
28.3681,58
28.3867,78
28.4053,53
28.4238,69
28.4424,49
28.4610,53
28.4796,64
28.4981,64
28.5167,65
28.5353,49
28.5539,77
28.5724,57
28.5910,52
28.6096,58
28.6282,58
28.6467,68
28.6653,70
28.6839,69
28.7025,54
28.7210,46
28.7396,62
28.7582,64
28.7768,63
28.7953,79
28.8139,55
28.8325,56
28.8511,57
28.8696,62
28.8882,70
28.9068,58
28.9254,55
28.9439,54
28.9625,61
28.9811,63
28.9997,58
29.0183,52
29.0368,49
29.0554,51
29.0740,70
29.0926,58
29.1111,57
29.1297,62
29.1483,75
29.1669,62
29.1854,62
29.2040,50
29.2226,59
29.2412,53
29.2597,66
29.2783,61
29.2969,59
29.3155,60
29.3340,67
29.3526,74
29.3712,65
29.3898,65
29.4083,48
29.4269,55
29.4455,74
29.4641,60
29.4826,59
29.5012,63
29.5198,44
29.5384,60
29.5569,66
29.5755,52
29.5941,57
29.6127,49
29.6312,64
29.6498,57
29.6684,70
29.6870,53
29.7055,54
29.7241,59
29.7427,74
29.7613,49
29.7799,59
29.7984,46
29.8170,68
29.8356,62
29.8542,50
29.8727,57
29.8913,52
29.9099,46
29.9285,50
29.9470,52
29.9656,52
29.9842,50
30.0028,65
30.0213,54
30.0399,64
30.0585,59
30.0771,67
30.0956,61
30.1142,43
30.1328,59
30.1514,65
30.1699,54
30.1885,56
30.2071,64
30.2257,53
30.2442,67
30.2628,57
30.2814,67
30.3000,71
30.3185,77
30.3371,71
30.3557,81
30.3743,124
30.3928,126
30.4114,103
30.4300,68
30.4486,87
30.4671,97
30.4857,94
30.5043,68
30.5229,57
30.5415,55
30.5600,46
30.5786,61
30.5972,58
30.6158,60
30.6343,64
30.6529,50
30.6715,54
30.6901,52
30.7086,58
30.7272,47
30.7458,59
30.7644,63
30.7829,60
30.8015,60
30.8201,51
30.8387,60
30.8572,63
30.8758,57
30.8944,48
30.9130,59
30.9315,45
30.9501,54
30.9687,63
30.9873,48
31.0058,40
31.0244,35
31.0430,54
31.0616,52
31.0801,60
31.0987,62
31.1173,60
31.1359,65
31.1544,59
31.1730,61
31.1916,58
31.2102,62
31.2287,48
31.2473,43
31.2659,58
31.2845,68
31.3030,47
31.3216,41
31.3402,43
31.3588,49
31.3774,55
31.3959,44
31.4145,53
31.4331,58
31.4517,60
31.4702,45
31.4888,57
31.5074,36
31.5260,46
31.5445,61
31.5631,40
31.5817,49
31.6003,41
31.6188,57
31.6374,38
31.6560,51
31.6746,46
31.6931,61
31.7117,61
31.7303,44
31.7489,34
31.7674,51
31.7860,53
31.8046,36
31.8232,44
31.8417,42
31.8603,51
31.8789,58
31.8975,50
31.9160,52
31.9346,57
31.9532,59
31.9718,47
31.9903,39
32.0089,43
32.0275,55
32.0461,54
32.0646,31
32.0832,48
32.1018,49
32.1204,59
32.1390,38
32.1575,47
32.1761,44
32.1947,56
32.2133,49
32.2318,39
32.2504,64
32.2690,52
32.2876,45
32.3061,51
32.3247,34
32.3433,54
32.3619,57
32.3804,39
32.3990,45
32.4176,54
32.4362,58
32.4547,60
32.4733,55
32.4919,55
32.5105,45
32.5290,62
32.5476,74
32.5662,50
32.5848,46
32.6033,55
32.6219,55
32.6405,50
32.6591,45
32.6776,55
32.6962,37
32.7148,50
32.7334,60
32.7519,37
32.7705,44
32.7891,39
32.8077,39
32.8262,40
32.8448,50
32.8634,40
32.8820,43
32.9006,43
32.9191,50
32.9377,49
32.9563,37
32.9749,44
32.9934,47
33.0120,45
33.0306,41
33.0492,44
33.0677,42
33.0863,38
33.1049,39
33.1235,39
33.1420,45
33.1606,43
33.1792,39
33.1978,40
33.2163,45
33.2349,54
33.2535,55
33.2721,44
33.2906,38
33.3092,43
33.3278,36
33.3464,35
33.3649,32
33.3835,47
33.4021,49
33.4207,37
33.4392,38
33.4578,45
33.4764,42
33.4950,41
33.5135,44
33.5321,56
33.5507,52
33.5693,51
33.5878,40
33.6064,46
33.6250,53
33.6436,40
33.6622,45
33.6807,44
33.6993,47
33.7179,46
33.7365,35
33.7550,43
33.7736,50
33.7922,56
33.8108,37
33.8293,40
33.8479,47
33.8665,56
33.8851,40
33.9036,48
33.9222,54
33.9408,34
33.9594,41
33.9779,51
33.9965,39
34.0151,36
34.0337,37
34.0522,30
34.0708,40
34.0894,54
34.1080,38
34.1265,50
34.1451,39
34.1637,46
34.1823,61
34.2008,42
34.2194,39
34.2380,38
34.2566,39
34.2751,48
34.2937,38
34.3123,49
34.3309,50
34.3494,43
34.3680,39
34.3866,37
34.4052,43
34.4238,47
34.4423,40
34.4609,41
34.4795,43
34.4981,61
34.5166,38
34.5352,44
34.5538,42
34.5724,34
34.5909,49
34.6095,47
34.6281,42
34.6467,48
34.6652,48
34.6838,47
34.7024,53
34.7210,50
34.7395,56
34.7581,47
34.7767,52
34.7953,47
34.8138,51
34.8324,41
34.8510,45
34.8696,57
34.8881,40
34.9067,47
34.9253,28
34.9439,37
34.9624,41
34.9810,44
34.9996,38
35.0182,28
35.0367,32
35.0553,42
35.0739,48
35.0925,34
35.1110,38
35.1296,31
35.1482,31
35.1668,47
35.1854,46
35.2039,29
35.2225,37
35.2411,36
35.2597,29
35.2782,35
35.2968,36
35.3154,40
35.3340,36
35.3525,28
35.3711,38
35.3897,34
35.4083,42
35.4268,45
35.4454,46
35.4640,39
35.4826,47
35.5011,42
35.5197,40
35.5383,37
35.5569,41
35.5754,36
35.5940,44
35.6126,43
35.6312,41
35.6497,31
35.6683,31
35.6869,32
35.7055,37
35.7240,36
35.7426,40
35.7612,39
35.7798,41
35.7983,38
35.8169,39
35.8355,41
35.8541,40
35.8726,35
35.8912,36
35.9098,39
35.9284,35
35.9469,37
35.9655,27
35.9841,36
36.0027,32
36.0213,47
36.0398,27
36.0584,31
36.0770,28
36.0956,37
36.1141,44
36.1327,31
36.1513,34
36.1699,35
36.1884,36
36.2070,32
36.2256,23
36.2442,32
36.2627,33
36.2813,33
36.2999,36
36.3185,37
36.3370,33
36.3556,26
36.3742,26
36.3928,37
36.4113,43
36.4299,32
36.4485,33
36.4671,26
36.4856,30
36.5042,27
36.5228,27
36.5414,33
36.5599,33
36.5785,37
36.5971,45
36.6157,48
36.6342,48
36.6528,23
36.6714,46
36.6900,45
36.7085,28
36.7271,36
36.7457,40
36.7643,34
36.7829,35
36.8014,41
36.8200,30
36.8386,41
36.8572,38
36.8757,31
36.8943,33
36.9129,38
36.9315,38
36.9500,30
36.9686,33
36.9872,36
37.0058,33
37.0243,37
37.0429,35
37.0615,23
37.0801,31
37.0986,33
37.1172,32
37.1358,35
37.1544,31
37.1729,39
37.1915,35
37.2101,37
37.2287,36
37.2472,45
37.2658,38
37.2844,37
37.3030,32
37.3215,48
37.3401,38
37.3587,17
37.3773,33
37.3958,44
37.4144,53
37.4330,52
37.4516,63
37.4701,61
37.4887,46
37.5073,49
37.5259,39
37.5445,42
37.5630,46
37.5816,27
37.6002,36
37.6188,30
37.6373,43
37.6559,52
37.6745,38
37.6931,28
37.7116,33
37.7302,34
37.7488,37
37.7674,37
37.7859,29
37.8045,36
37.8231,30
37.8417,38
37.8602,44
37.8788,27
37.8974,25
37.9160,35
37.9345,30
37.9531,31
37.9717,21
37.9903,33
38.0088,31
38.0274,34
38.0460,32
38.0646,24
38.0831,29
38.1017,37
38.1203,29
38.1389,31
38.1574,35
38.1760,33
38.1946,37
38.2132,27
38.2317,40
38.2503,31
38.2689,30
38.2875,37
38.3061,32
38.3246,38
38.3432,34
38.3618,39
38.3804,30
38.3989,38
38.4175,28
38.4361,30
38.4547,25
38.4732,37
38.4918,28
38.5104,31
38.5290,33
38.5475,33
38.5661,26
38.5847,31
38.6033,25
38.6218,28
38.6404,36
38.6590,24
38.6776,34
38.6961,25
38.7147,31
38.7333,21
38.7519,24
38.7704,30
38.7890,35
38.8076,24
38.8262,31
38.8447,30
38.8633,24
38.8819,28
38.9005,24
38.9190,37
38.9376,47
38.9562,31
38.9748,34
38.9933,35
39.0119,25
39.0305,36
39.0491,31
39.0677,35
39.0862,29
39.1048,28
39.1234,25
39.1420,29
39.1605,27
39.1791,22
39.1977,31
39.2163,30
39.2348,26
39.2534,27
39.2720,34
39.2906,20
39.3091,34
39.3277,31
39.3463,37
39.3649,30
39.3834,27
39.4020,23
39.4206,31
39.4392,26
39.4577,31
39.4763,38
39.4949,27
39.5135,36
39.5320,20
39.5506,29
39.5692,25
39.5878,36
39.6063,22
39.6249,25
39.6435,29
39.6621,24
39.6806,32
39.6992,39
39.7178,35
39.7364,31
39.7549,19
39.7735,24
39.7921,28
39.8107,21
39.8293,26
39.8478,24
39.8664,28
39.8850,22
39.9036,29
39.9221,30
39.9407,18
39.9593,30
39.9779,18
39.9964,25
40.0150,19
40.0336,30
40.0522,26
40.0707,27
40.0893,33
40.1079,31
40.1265,35
40.1450,30
40.1636,24
40.1822,21
40.2008,30
40.2193,28
40.2379,18
40.2565,37
40.2751,35
40.2936,24
40.3122,30
40.3308,24
40.3494,36
40.3679,36
40.3865,38
40.4051,29
40.4237,32
40.4422,31
40.4608,30
40.4794,34
40.4980,26
40.5165,32
40.5351,17
40.5537,26
40.5723,31
40.5908,26
40.6094,28
40.6280,40
40.6466,29
40.6652,25
40.6837,29
40.7023,27
40.7209,30
40.7395,31
40.7580,36
40.7766,33
40.7952,30
40.8138,28
40.8323,28
40.8509,22
40.8695,32
40.8881,23
40.9066,27
40.9252,29
40.9438,33
40.9624,35
40.9809,20
40.9995,22
41.0181,31
41.0367,42
41.0552,38
41.0738,36
41.0924,26
41.1110,24
41.1295,28
41.1481,28
41.1667,29
41.1853,25
41.2038,29
41.2224,20
41.2410,27
41.2596,30
41.2781,28
41.2967,23
41.3153,22
41.3339,26
41.3524,28
41.3710,30
41.3896,26
41.4082,24
41.4268,26
41.4453,25
41.4639,30
41.4825,31
41.5011,20
41.5196,17
41.5382,34
41.5568,24
41.5754,26
41.5939,30
41.6125,30
41.6311,23
41.6497,30
41.6682,20
41.6868,22
41.7054,28
41.7240,33
41.7425,30
41.7611,31
41.7797,42
41.7983,31
41.8168,25
41.8354,24
41.8540,30
41.8726,33
41.8911,28
41.9097,29
41.9283,43
41.9469,30
41.9654,33
41.9840,30
42.0026,23
42.0212,29
42.0397,30
42.0583,30
42.0769,26
42.0955,31
42.1140,27
42.1326,26
42.1512,26
42.1698,28
42.1884,28
42.2069,26
42.2255,24
42.2441,37
42.2627,25
42.2812,28
42.2998,27
42.3184,28
42.3370,34
42.3555,33
42.3741,37
42.3927,32
42.4113,22
42.4298,29
42.4484,30
42.4670,31
42.4856,21
42.5041,38
42.5227,25
42.5413,35
42.5599,26
42.5784,24
42.5970,20
42.6156,35
42.6342,25
42.6527,30
42.6713,33
42.6899,25
42.7085,30
42.7270,34
42.7456,23
42.7642,28
42.7828,37
42.8013,23
42.8199,24
42.8385,34
42.8571,24
42.8756,31
42.8942,34
42.9128,26
42.9314,31
42.9500,18
42.9685,30
42.9871,40
43.0057,24
43.0243,23
43.0428,26
43.0614,23
43.0800,25
43.0986,27
43.1171,31
43.1357,30
43.1543,31
43.1729,37
43.1914,47
43.2100,38
43.2286,34
43.2472,27
43.2657,38
43.2843,26
43.3029,35
43.3215,31
43.3400,22
43.3586,42
43.3772,34
43.3958,33
43.4143,29
43.4329,18
43.4515,41
43.4701,38
43.4886,47
43.5072,52
43.5258,48
43.5444,31
43.5629,32
43.5815,31
43.6001,39
43.6187,39
43.6372,44
43.6558,33
43.6744,33
43.6930,33
43.7116,35
43.7301,25
43.7487,27
43.7673,24
43.7859,33
43.8044,28
43.8230,23
43.8416,21
43.8602,19
43.8787,23
43.8973,22
43.9159,26
43.9345,30
43.9530,24
43.9716,28
43.9902,18
44.0088,23
44.0273,30
44.0459,25
44.0645,29
44.0831,18
44.1016,22
44.1202,26
44.1388,25
44.1574,22
44.1759,29
44.1945,28
44.2131,21
44.2317,32
44.2502,33
44.2688,23
44.2874,29
44.3060,22
44.3245,29
44.3431,32
44.3617,26
44.3803,31
44.3988,31
44.4174,13
44.4360,24
44.4546,32
44.4732,25
44.4917,29
44.5103,30
44.5289,25
44.5475,35
44.5660,25
44.5846,39
44.6032,26
44.6218,25
44.6403,24
44.6589,28
44.6775,32
44.6961,32
44.7146,30
44.7332,33
44.7518,34
44.7704,31
44.7889,25
44.8075,24
44.8261,23
44.8447,25
44.8632,19
44.8818,24
44.9004,29
44.9190,22
44.9375,26
44.9561,30
44.9747,19
44.9933,25
45.0118,22
45.0304,15
45.0490,21
45.0676,28
45.0861,23
45.1047,35
45.1233,20
45.1419,27
45.1604,35
45.1790,31
45.1976,26
45.2162,27
45.2347,25
45.2533,23
45.2719,21
45.2905,29
45.3091,16
45.3276,14
45.3462,22
45.3648,33
45.3834,23
45.4019,21
45.4205,18
45.4391,18
45.4577,27
45.4762,25
45.4948,37
45.5134,24
45.5320,29
45.5505,28
45.5691,27
45.5877,20
45.6063,20
45.6248,29
45.6434,28
45.6620,32
45.6806,22
45.6991,24
45.7177,22
45.7363,20
45.7549,27
45.7734,28
45.7920,31
45.8106,33
45.8292,26
45.8477,27
45.8663,28
45.8849,29
45.9035,30
45.9220,21
45.9406,29
45.9592,25
45.9778,31
45.9963,22
46.0149,22
46.0335,21
46.0521,22
46.0707,23
46.0892,23
46.1078,21
46.1264,22
46.1450,27
46.1635,26
46.1821,20
46.2007,38
46.2193,28
46.2378,18
46.2564,29
46.2750,31
46.2936,21
46.3121,29
46.3307,26
46.3493,19
46.3679,20
46.3864,24
46.4050,16
46.4236,29
46.4422,25
46.4607,29
46.4793,27
46.4979,31
46.5165,16
46.5350,21
46.5536,22
46.5722,24
46.5908,26
46.6093,18
46.6279,22
46.6465,19
46.6651,31
46.6836,28
46.7022,28
46.7208,15
46.7394,29
46.7579,30
46.7765,14
46.7951,20
46.8137,24
46.8323,31
46.8508,20
46.8694,33
46.8880,24
46.9066,35
46.9251,30
46.9437,28
46.9623,24
46.9809,26
46.9994,20
47.0180,24
47.0366,22
47.0552,21
47.0737,25
47.0923,19
47.1109,21
47.1295,19
47.1480,27
47.1666,24
47.1852,16
47.2038,27
47.2223,28
47.2409,15
47.2595,24
47.2781,26
47.2966,19
47.3152,23
47.3338,23
47.3524,35
47.3709,31
47.3895,30
47.4081,20
47.4267,20
47.4452,28
47.4638,24
47.4824,17
47.5010,20
47.5195,25
47.5381,21
47.5567,27
47.5753,26
47.5939,25
47.6124,18
47.6310,21
47.6496,33
47.6682,17
47.6867,24
47.7053,28
47.7239,25
47.7425,19
47.7610,20
47.7796,14
47.7982,15
47.8168,31
47.8353,26
47.8539,27
47.8725,19
47.8911,29
47.9096,25
47.9282,25
47.9468,17
47.9654,20
47.9839,17
48.0025,20
48.0211,24
48.0397,22
48.0582,16
48.0768,21
48.0954,18
48.1140,23
48.1325,22
48.1511,19
48.1697,21
48.1883,20
48.2068,26
48.2254,22
48.2440,28
48.2626,18
48.2811,23
48.2997,21
48.3183,27
48.3369,17
48.3555,20
48.3740,22
48.3926,28
48.4112,20
48.4298,25
48.4483,18
48.4669,25
48.4855,24
48.5041,25
48.5226,16
48.5412,17
48.5598,22
48.5784,18
48.5969,29
48.6155,19
48.6341,27
48.6527,18
48.6712,27
48.6898,21
48.7084,26
48.7270,22
48.7455,21
48.7641,28
48.7827,17
48.8013,18
48.8198,14
48.8384,20
48.8570,28
48.8756,22
48.8941,30
48.9127,40
48.9313,37
48.9499,38
48.9684,46
48.9870,35
49.0056,29
49.0242,20
49.0427,26
49.0613,36
49.0799,33
49.0985,26
49.1171,24
49.1356,31
49.1542,23
49.1728,28
49.1914,28
49.2099,31
49.2285,19
49.2471,23
49.2657,19
49.2842,19
49.3028,36
49.3214,23
49.3400,26
49.3585,26
49.3771,30
49.3957,23
49.4143,19
49.4328,25
49.4514,15
49.4700,23
49.4886,29
49.5071,24
49.5257,23
49.5443,16
49.5629,22
49.5814,31
49.6000,25
49.6186,35
49.6372,25
49.6557,25
49.6743,26
49.6929,25
49.7115,26
49.7300,22
49.7486,29
49.7672,24
49.7858,21
49.8043,17
49.8229,26
49.8415,14
49.8601,26
49.8786,24
49.8972,19
49.9158,18
49.9344,25
49.9530,20
49.9715,20
49.9901,25
50.0087,15
50.0273,16
50.0458,26
50.0644,18
50.0830,25
50.1016,25
50.1201,17
50.1387,34
50.1573,21
50.1759,21
50.1944,21
50.2130,30
50.2316,18
50.2502,29
50.2687,36
50.2873,23
50.3059,30
50.3245,18
50.3430,14
50.3616,26
50.3802,29
50.3988,24
50.4173,26
50.4359,27
50.4545,14
50.4731,22
50.4916,17
50.5102,20
50.5288,26
50.5474,19
50.5659,20
50.5845,22
50.6031,22
50.6217,21
50.6402,22
50.6588,29
50.6774,14
50.6960,33
50.7146,17
50.7331,14
50.7517,17
50.7703,14
50.7889,26
50.8074,21
50.8260,22
50.8446,13
50.8632,25
50.8817,19
50.9003,21
50.9189,16
50.9375,26
50.9560,21
50.9746,25
50.9932,20
51.0118,20
51.0303,20
51.0489,23
51.0675,19
51.0861,18
51.1046,28
51.1232,20
51.1418,28
51.1604,21
51.1789,26
51.1975,18
51.2161,28
51.2347,23
51.2532,15
51.2718,23
51.2904,28
51.3090,23
51.3275,24
51.3461,23
51.3647,15
51.3833,27
51.4018,24
51.4204,23
51.4390,31
51.4576,20
51.4762,25
51.4947,24
51.5133,18
51.5319,15
51.5505,23
51.5690,17
51.5876,23
51.6062,20
51.6248,20
51.6433,22
51.6619,30
51.6805,20
51.6991,12
51.7176,21
51.7362,15
51.7548,19
51.7734,24
51.7919,25
51.8105,24
51.8291,27
51.8477,20
51.8662,27
51.8848,16
51.9034,24
51.9220,18
51.9405,26
51.9591,27
51.9777,23
51.9963,19
52.0148,34
52.0334,20
52.0520,30
52.0706,29
52.0891,18
52.1077,27
52.1263,27
52.1449,20
52.1634,20
52.1820,19
52.2006,20
52.2192,17
52.2378,21
52.2563,31
52.2749,27
52.2935,20
52.3121,18
52.3306,23
52.3492,26
52.3678,17
52.3864,16
52.4049,16
52.4235,18
52.4421,13
52.4607,20
52.4792,19
52.4978,13
52.5164,19
52.5350,22
52.5535,23
52.5721,17
52.5907,19
52.6093,21
52.6278,16
52.6464,18
52.6650,28
52.6836,18
52.7021,19
52.7207,17
52.7393,23
52.7579,14
52.7764,19
52.7950,21
52.8136,19
52.8322,29
52.8507,27
52.8693,30
52.8879,13
52.9065,24
52.9250,18
52.9436,20
52.9622,16
52.9808,23
52.9994,24
53.0179,22
53.0365,28
53.0551,21
53.0737,17
53.0922,13
53.1108,17
53.1294,27
53.1480,31
53.1665,19
53.1851,23
53.2037,19
53.2223,16
53.2408,21
53.2594,21
53.2780,24
53.2966,15
53.3151,14
53.3337,23
53.3523,19
53.3709,19
53.3894,24
53.4080,23
53.4266,19
53.4452,16
53.4637,11
53.4823,25
53.5009,21
53.5195,25
53.5380,25
53.5566,23
53.5752,18
53.5938,24
53.6123,21
53.6309,24
53.6495,22
53.6681,15
53.6866,17
53.7052,34
53.7238,20
53.7424,20
53.7610,17
53.7795,24
53.7981,14
53.8167,23
53.8353,23
53.8538,29
53.8724,27
53.8910,26
53.9096,22
53.9281,25
53.9467,31
53.9653,31
53.9839,31
54.0024,24
54.0210,32
54.0396,17
54.0582,23
54.0767,29
54.0953,23
54.1139,30
54.1325,23
54.1510,32
54.1696,25
54.1882,24
54.2068,24
54.2253,16
54.2439,22
54.2625,20
54.2811,18
54.2996,15
54.3182,28
54.3368,14
54.3554,19
54.3739,11
54.3925,21
54.4111,21
54.4297,16
54.4482,21
54.4668,23
54.4854,17
54.5040,21
54.5225,21
54.5411,20
54.5597,19
54.5783,27
54.5969,22
54.6154,8
54.6340,23
54.6526,18
54.6712,21
54.6897,22
54.7083,15
54.7269,20
54.7455,19
54.7640,24
54.7826,25
54.8012,23
54.8198,20
54.8383,23
54.8569,26
54.8755,23
54.8941,22
54.9126,17
54.9312,23
54.9498,28
54.9684,22
54.9869,15
55.0055,18
55.0241,17
55.0427,23
55.0612,23
55.0798,23
55.0984,17
55.1170,21
55.1355,19
55.1541,28
55.1727,19
55.1913,23
55.2098,16
55.2284,21
55.2470,21
55.2656,20
55.2841,22
55.3027,17
55.3213,21
55.3399,27
55.3585,29
55.3770,24
55.3956,23
55.4142,25
55.4328,24
55.4513,19
55.4699,24
55.4885,17
55.5071,25
55.5256,14
55.5442,21
55.5628,24
55.5814,16
55.5999,13
55.6185,23
55.6371,28
55.6557,31
55.6742,19
55.6928,18
55.7114,20
55.7300,31
55.7485,20
55.7671,20
55.7857,26
55.8043,17
55.8228,17
55.8414,22
55.8600,18
55.8786,28
55.8971,18
55.9157,31
55.9343,26
55.9529,28
55.9714,24
55.9900,26
56.0086,17
56.0272,19
56.0457,18
56.0643,19
56.0829,23
56.1015,24
56.1201,22
56.1386,17
56.1572,15
56.1758,10
56.1944,21
56.2129,20
56.2315,28
56.2501,31
56.2687,19
56.2872,15
56.3058,26
56.3244,17
56.3430,23
56.3615,22
56.3801,23
56.3987,27
56.4173,19
56.4358,21
56.4544,20
56.4730,21
56.4916,19
56.5101,18
56.5287,24
56.5473,30
56.5659,24
56.5844,16
56.6030,19
56.6216,18
56.6402,13
56.6587,22
56.6773,25
56.6959,20
56.7145,17
56.7330,32
56.7516,24
56.7702,17
56.7888,17
56.8073,19
56.8259,23
56.8445,14
56.8631,31
56.8817,12
56.9002,18
56.9188,15
56.9374,18
56.9560,30
56.9745,25
56.9931,17
57.0117,12
57.0303,17
57.0488,23
57.0674,21
57.0860,20
57.1046,20
57.1231,17
57.1417,23
57.1603,26
57.1789,20
57.1974,23
57.2160,18
57.2346,21
57.2532,25
57.2717,23
57.2903,25
57.3089,19
57.3275,20
57.3460,19
57.3646,17
57.3832,15
57.4018,18
57.4203,25
57.4389,13
57.4575,16
57.4761,18
57.4946,25
57.5132,23
57.5318,26
57.5504,15
57.5689,16
57.5875,17
57.6061,17
57.6247,18
57.6433,16
57.6618,26
57.6804,20
57.6990,15
57.7176,23
57.7361,19
57.7547,13
57.7733,24
57.7919,13
57.8104,19
57.8290,22
57.8476,21
57.8662,23
57.8847,22
57.9033,22
57.9219,21
57.9405,16
57.9590,18
57.9776,28
57.9962,14
58.0148,14
58.0333,28
58.0519,15
58.0705,31
58.0891,24
58.1076,24
58.1262,20
58.1448,16
58.1634,21
58.1819,15
58.2005,29
58.2191,21
58.2377,17
58.2562,7
58.2748,27
58.2934,22
58.3120,22
58.3305,16
58.3491,18
58.3677,15
58.3863,23
58.4049,20
58.4234,31
58.4420,22
58.4606,13
58.4792,20
58.4977,23
58.5163,25
58.5349,26
58.5535,17
58.5720,22
58.5906,17
58.6092,28
58.6278,14
58.6463,19
58.6649,31
58.6835,23
58.7021,16
58.7206,23
58.7392,18
58.7578,19
58.7764,22
58.7949,15
58.8135,24
58.8321,18
58.8507,15
58.8692,20
58.8878,23
58.9064,9
58.9250,20
58.9435,24
58.9621,25
58.9807,20
58.9993,16
59.0178,19
59.0364,21
59.0550,17
59.0736,18
59.0921,20
59.1107,17
59.1293,21
59.1479,27
59.1664,17
59.1850,17
59.2036,30
59.2222,19
59.2408,22
59.2593,29
59.2779,12
59.2965,18
59.3151,20
59.3336,23
59.3522,23
59.3708,21
59.3894,21
59.4079,11
59.4265,18
59.4451,16
59.4637,22
59.4822,26
59.5008,20
59.5194,20
59.5380,13
59.5565,27
59.5751,19
59.5937,15
59.6123,12
59.6308,25
59.6494,12
59.6680,23
59.6866,22
59.7051,29
59.7237,14
59.7423,18
59.7609,20
59.7794,21
59.7980,28
59.8166,18
59.8352,18
59.8537,29
59.8723,22
59.8909,13
59.9095,23
59.9280,23
59.9466,17
59.9652,17
59.9838,21
60.0024,19
