; (content of file Y:\Sam\Apurva-07-20-2022\puck4\ML_20220718_53_SJD_4_LaB6-4min.raw)
_FILEVERSION = 3
_SAMPLE = ML_20220718_53_SJD_4_LaB6-4min
_+SAMPLE = 
_SITE = USA
_USER = Administrator
_GONIOMETER_CODE = 20
; Goniometer : D8 theta/2theta, stage : Unknown
_ATTACHMENTS_CODE = 0
_GONIOMETER_RADIUS = 200.5
_FIXED_DIVSLIT = 0.6
_FIXED_SAMPLESLIT = 0
_SOLLER_SLITS = 2
_FIXED_DETSLIT = 9.55
_MONOCHROMATOR = 0
; Incident beam monochromator : None
_SOLLER_SLITS_2 = N
_THIN_FILM = N
_BETA_FILTER = Y
_FIXED_ANTISLIT = 5.89
_ANALYZER_CODE = 0
; Received beam analyzer : None
_DATEMEASURED = "26-Jul-2022 14:14:13"
_WL_UNIT = A
_WL1 = 1.5406
_WL2 = 1.54439
_WL3 = 1.39222
_WLRATIO = 0.5
_ANODE = Cu
_V4_INF_CREATOR = XRDWizard
_V4_INF_CREATOR_VERSION = V2.9.0.22
_V4_INF_WIZARD_VERSION = V2.9.0.22
_V4_INF_WIZARD_ADDINS = V2.9.0.22
_V4_INF_WIZARD_DOCTYPE = XRD
_V4_INF_OSUSER = McQueenLab
_V4_INF_USER = Administrator
_V4_INF_SITE = USA
_V4_INF_SAMPLEID = ML_20220718_53_SJD_4_LaB6-4min

; Data for range 1
_DRIVE = COUPLED
_STEPTIME = 11.28
_STEPSIZE = 0.0185756
_STEPMODE = C
_START = 5
_THETA = 2.5
_2THETA = 5
_KHI = 0
_PHI = 0
_X = 0
_Y = 0
_Z = 0
_DETECTOR = 5
; Detector type : Unknown
_DETECTORSLIT = unkn
_AUX1 = 0
_AUX2 = 0
_AUX3 = 0
_TIMESTARTED = 15
_TEMP_RATE = -1
_TEMP_DELAY = -1
_KV = 40
_MA = 40
_RANGE_WL = 1.5406
_3DPLANE = 0
_V4_ADDITIONALDETECTOR = 257
_V4_PSD2THETA = 3.3902
_V4_PSDCHANNEL1 = 0
_V4_PSDAPERTURE = 12.68
_V4_PSDTYPE = 5
_V4_PSDFIXED = 0
_V4_COUNTERS_MASK = 4096
_V4_DRIVES_MASK = 0
_V4_ENCODERS_MASK = 0
_2THETACOUNTS = 1
; 2THETA  PSD
   5.0000        239
   5.0186        250
   5.0372        244
   5.0557        267
   5.0743        277
   5.0929        247
   5.1115        233
   5.1300        270
   5.1486        266
   5.1672        241
   5.1858        246
   5.2043        238
   5.2229        217
   5.2415        233
   5.2601        241
   5.2786        266
   5.2972        239
   5.3158        242
   5.3344        250
   5.3529        228
   5.3715        230
   5.3901        247
   5.4087        242
   5.4272        232
   5.4458        232
   5.4644        216
   5.4830        213
   5.5015        234
   5.5201        235
   5.5387        221
   5.5573        200
   5.5758        210
   5.5944        240
   5.6130        243
   5.6316        209
   5.6501        235
   5.6687        214
   5.6873        222
   5.7059        213
   5.7244        194
   5.7430        215
   5.7616        187
   5.7802        214
   5.7988        203
   5.8173        196
   5.8359        186
   5.8545        202
   5.8731        178
   5.8916        188
   5.9102        230
   5.9288        196
   5.9474        204
   5.9659        201
   5.9845        186
   6.0031        209
   6.0217        212
   6.0402        193
   6.0588        189
   6.0774        171
   6.0960        215
   6.1145        202
   6.1331        218
   6.1517        225
   6.1703        208
   6.1888        199
   6.2074        190
   6.2260        177
   6.2446        186
   6.2631        194
   6.2817        163
   6.3003        172
   6.3189        188
   6.3374        180
   6.3560        180
   6.3746        197
   6.3932        184
   6.4117        175
   6.4303        177
   6.4489        174
   6.4675        174
   6.4860        177
   6.5046        152
   6.5232        184
   6.5418        192
   6.5604        168
   6.5789        171
   6.5975        194
   6.6161        167
   6.6347        172
   6.6532        149
   6.6718        186
   6.6904        190
   6.7090        176
   6.7275        178
   6.7461        186
   6.7647        157
   6.7833        165
   6.8018        164
   6.8204        150
   6.8390        179
   6.8576        175
   6.8761        178
   6.8947        166
   6.9133        165
   6.9319        161
   6.9504        196
   6.9690        181
   6.9876        157
   7.0062        144
   7.0247        163
   7.0433        162
   7.0619        164
   7.0805        161
   7.0990        179
   7.1176        125
   7.1362        157
   7.1548        134
   7.1733        171
   7.1919        165
   7.2105        147
   7.2291        170
   7.2476        147
   7.2662        161
   7.2848        179
   7.3034        171
   7.3220        186
   7.3405        155
   7.3591        152
   7.3777        155
   7.3963        170
   7.4148        165
   7.4334        141
   7.4520        151
   7.4706        157
   7.4891        182
   7.5077        147
   7.5263        182
   7.5449        167
   7.5634        173
   7.5820        158
   7.6006        142
   7.6192        153
   7.6377        171
   7.6563        183
   7.6749        173
   7.6935        166
   7.7120        170
   7.7306        194
   7.7492        188
   7.7678        193
   7.7863        185
   7.8049        183
   7.8235        187
   7.8421        142
   7.8606        203
   7.8792        169
   7.8978        176
   7.9164        186
   7.9349        175
   7.9535        207
   7.9721        196
   7.9907        189
   8.0092        186
   8.0278        180
   8.0464        189
   8.0650        194
   8.0835        171
   8.1021        166
   8.1207        162
   8.1393        189
   8.1579        182
   8.1764        201
   8.1950        188
   8.2136        180
   8.2322        196
   8.2507        195
   8.2693        207
   8.2879        202
   8.3065        184
   8.3250        198
   8.3436        211
   8.3622        175
   8.3808        206
   8.3993        195
   8.4179        194
   8.4365        200
   8.4551        195
   8.4736        186
   8.4922        187
   8.5108        187
   8.5294        205
   8.5479        199
   8.5665        226
   8.5851        207
   8.6037        215
   8.6222        193
   8.6408        207
   8.6594        223
   8.6780        204
   8.6965        182
   8.7151        229
   8.7337        197
   8.7523        202
   8.7708        220
   8.7894        205
   8.8080        204
   8.8266        203
   8.8451        217
   8.8637        203
   8.8823        179
   8.9009        237
   8.9195        205
   8.9380        208
   8.9566        198
   8.9752        211
   8.9938        206
   9.0123        221
   9.0309        209
   9.0495        226
   9.0681        209
   9.0866        253
   9.1052        208
   9.1238        224
   9.1424        193
   9.1609        230
   9.1795        248
   9.1981        209
   9.2167        226
   9.2352        213
   9.2538        212
   9.2724        205
   9.2910        240
   9.3095        210
   9.3281        206
   9.3467        236
   9.3653        220
   9.3838        211
   9.4024        211
   9.4210        207
   9.4396        256
   9.4581        208
   9.4767        217
   9.4953        225
   9.5139        206
   9.5324        222
   9.5510        187
   9.5696        205
   9.5882        204
   9.6067        220
   9.6253        220
   9.6439        227
   9.6625        221
   9.6811        220
   9.6996        244
   9.7182        235
   9.7368        221
   9.7554        222
   9.7739        210
   9.7925        224
   9.8111        242
   9.8297        222
   9.8482        241
   9.8668        250
   9.8854        230
   9.9040        215
   9.9225        263
   9.9411        239
   9.9597        215
   9.9783        220
   9.9968        230
  10.0154        236
  10.0340        250
  10.0526        239
  10.0711        221
  10.0897        270
  10.1083        233
  10.1269        251
  10.1454        236
  10.1640        237
  10.1826        195
  10.2012        245
  10.2197        239
  10.2383        244
  10.2569        254
  10.2755        254
  10.2940        222
  10.3126        238
  10.3312        203
  10.3498        228
  10.3683        238
  10.3869        265
  10.4055        256
  10.4241        210
  10.4427        198
  10.4612        246
  10.4798        268
  10.4984        245
  10.5170        250
  10.5355        221
  10.5541        230
  10.5727        258
  10.5913        249
  10.6098        267
  10.6284        262
  10.6470        245
  10.6656        245
  10.6841        245
  10.7027        218
  10.7213        244
  10.7399        260
  10.7584        233
  10.7770        239
  10.7956        240
  10.8142        234
  10.8327        235
  10.8513        216
  10.8699        223
  10.8885        236
  10.9070        243
  10.9256        226
  10.9442        234
  10.9628        256
  10.9813        262
  10.9999        263
  11.0185        255
  11.0371        254
  11.0556        228
  11.0742        230
  11.0928        228
  11.1114        224
  11.1299        236
  11.1485        226
  11.1671        248
  11.1857        253
  11.2043        217
  11.2228        263
  11.2414        264
  11.2600        266
  11.2786        232
  11.2971        235
  11.3157        229
  11.3343        241
  11.3529        245
  11.3714        216
  11.3900        247
  11.4086        248
  11.4272        245
  11.4457        251
  11.4643        229
  11.4829        248
  11.5015        235
  11.5200        265
  11.5386        231
  11.5572        234
  11.5758        240
  11.5943        233
  11.6129        240
  11.6315        231
  11.6501        258
  11.6686        208
  11.6872        227
  11.7058        227
  11.7244        226
  11.7429        232
  11.7615        239
  11.7801        216
  11.7987        220
  11.8172        258
  11.8358        242
  11.8544        210
  11.8730        247
  11.8915        234
  11.9101        248
  11.9287        226
  11.9473        223
  11.9659        208
  11.9844        236
  12.0030        231
  12.0216        232
  12.0402        219
  12.0587        206
  12.0773        211
  12.0959        235
  12.1145        214
  12.1330        216
  12.1516        229
  12.1702        213
  12.1888        213
  12.2073        195
  12.2259        231
  12.2445        223
  12.2631        225
  12.2816        240
  12.3002        216
  12.3188        222
  12.3374        223
  12.3559        214
  12.3745        217
  12.3931        212
  12.4117        203
  12.4302        202
  12.4488        234
  12.4674        223
  12.4860        219
  12.5045        220
  12.5231        221
  12.5417        250
  12.5603        215
  12.5788        227
  12.5974        199
  12.6160        219
  12.6346        210
  12.6531        195
  12.6717        215
  12.6903        188
  12.7089        224
  12.7274        215
  12.7460        225
  12.7646        227
  12.7832        200
  12.8018        226
  12.8203        194
  12.8389        191
  12.8575        225
  12.8761        196
  12.8946        191
  12.9132        220
  12.9318        227
  12.9504        183
  12.9689        205
  12.9875        222
  13.0061        184
  13.0247        202
  13.0432        201
  13.0618        195
  13.0804        212
  13.0990        203
  13.1175        193
  13.1361        196
  13.1547        191
  13.1733        200
  13.1918        206
  13.2104        224
  13.2290        185
  13.2476        202
  13.2661        209
  13.2847        214
  13.3033        194
  13.3219        201
  13.3404        183
  13.3590        238
  13.3776        207
  13.3962        183
  13.4147        207
  13.4333        199
  13.4519        200
  13.4705        217
  13.4890        187
  13.5076        220
  13.5262        206
  13.5448        218
  13.5634        189
  13.5819        171
  13.6005        198
  13.6191        191
  13.6377        212
  13.6562        174
  13.6748        173
  13.6934        199
  13.7120        202
  13.7305        196
  13.7491        183
  13.7677        190
  13.7863        174
  13.8048        199
  13.8234        173
  13.8420        198
  13.8606        189
  13.8791        162
  13.8977        174
  13.9163        183
  13.9349        181
  13.9534        181
  13.9720        204
  13.9906        194
  14.0092        162
  14.0277        207
  14.0463        207
  14.0649        182
  14.0835        167
  14.1020        182
  14.1206        218
  14.1392        190
  14.1578        193
  14.1763        179
  14.1949        197
  14.2135        197
  14.2321        201
  14.2506        197
  14.2692        184
  14.2878        186
  14.3064        193
  14.3250        155
  14.3435        182
  14.3621        178
  14.3807        186
  14.3993        185
  14.4178        187
  14.4364        172
  14.4550        190
  14.4736        186
  14.4921        165
  14.5107        161
  14.5293        198
  14.5479        165
  14.5664        173
  14.5850        168
  14.6036        163
  14.6222        175
  14.6407        182
  14.6593        185
  14.6779        171
  14.6965        196
  14.7150        172
  14.7336        174
  14.7522        176
  14.7708        156
  14.7893        175
  14.8079        182
  14.8265        165
  14.8451        138
  14.8636        177
  14.8822        157
  14.9008        178
  14.9194        166
  14.9379        153
  14.9565        176
  14.9751        170
  14.9937        174
  15.0122        172
  15.0308        156
  15.0494        170
  15.0680        180
  15.0866        173
  15.1051        168
  15.1237        156
  15.1423        165
  15.1609        163
  15.1794        175
  15.1980        149
  15.2166        177
  15.2352        169
  15.2537        193
  15.2723        163
  15.2909        164
  15.3095        163
  15.3280        175
  15.3466        183
  15.3652        140
  15.3838        151
  15.4023        174
  15.4209        161
  15.4395        157
  15.4581        176
  15.4766        171
  15.4952        159
  15.5138        153
  15.5324        174
  15.5509        160
  15.5695        182
  15.5881        179
  15.6067        165
  15.6252        153
  15.6438        155
  15.6624        147
  15.6810        174
  15.6995        183
  15.7181        177
  15.7367        154
  15.7553        159
  15.7738        151
  15.7924        182
  15.8110        150
  15.8296        144
  15.8482        187
  15.8667        170
  15.8853        152
  15.9039        144
  15.9225        158
  15.9410        156
  15.9596        160
  15.9782        172
  15.9968        160
  16.0153        158
  16.0339        187
  16.0525        162
  16.0711        178
  16.0896        159
  16.1082        138
  16.1268        154
  16.1454        172
  16.1639        170
  16.1825        141
  16.2011        150
  16.2197        171
  16.2382        168
  16.2568        176
  16.2754        163
  16.2940        159
  16.3125        156
  16.3311        150
  16.3497        137
  16.3683        173
  16.3868        173
  16.4054        161
  16.4240        171
  16.4426        149
  16.4611        156
  16.4797        169
  16.4983        161
  16.5169        158
  16.5354        168
  16.5540        155
  16.5726        165
  16.5912        168
  16.6097        161
  16.6283        175
  16.6469        166
  16.6655        158
  16.6841        155
  16.7026        155
  16.7212        171
  16.7398        144
  16.7584        167
  16.7769        146
  16.7955        179
  16.8141        137
  16.8327        143
  16.8512        165
  16.8698        174
  16.8884        163
  16.9070        170
  16.9255        177
  16.9441        161
  16.9627        164
  16.9813        162
  16.9998        171
  17.0184        186
  17.0370        173
  17.0556        153
  17.0741        165
  17.0927        162
  17.1113        148
  17.1299        171
  17.1484        153
  17.1670        179
  17.1856        161
  17.2042        187
  17.2227        148
  17.2413        182
  17.2599        142
  17.2785        167
  17.2970        128
  17.3156        167
  17.3342        154
  17.3528        149
  17.3713        141
  17.3899        138
  17.4085        159
  17.4271        160
  17.4457        151
  17.4642        149
  17.4828        164
  17.5014        155
  17.5200        170
  17.5385        162
  17.5571        158
  17.5757        162
  17.5943        160
  17.6128        163
  17.6314        165
  17.6500        188
  17.6686        163
  17.6871        140
  17.7057        151
  17.7243        184
  17.7429        160
  17.7614        159
  17.7800        155
  17.7986        134
  17.8172        174
  17.8357        183
  17.8543        167
  17.8729        141
  17.8915        171
  17.9100        159
  17.9286        178
  17.9472        154
  17.9658        157
  17.9843        180
  18.0029        163
  18.0215        177
  18.0401        156
  18.0586        163
  18.0772        137
  18.0958        174
  18.1144        181
  18.1329        158
  18.1515        167
  18.1701        142
  18.1887        181
  18.2073        158
  18.2258        187
  18.2444        160
  18.2630        161
  18.2816        156
  18.3001        155
  18.3187        176
  18.3373        150
  18.3559        134
  18.3744        165
  18.3930        176
  18.4116        184
  18.4302        164
  18.4487        164
  18.4673        160
  18.4859        149
  18.5045        167
  18.5230        159
  18.5416        169
  18.5602        146
  18.5788        147
  18.5973        155
  18.6159        141
  18.6345        163
  18.6531        166
  18.6716        179
  18.6902        162
  18.7088        162
  18.7274        156
  18.7459        166
  18.7645        177
  18.7831        160
  18.8017        166
  18.8202        163
  18.8388        170
  18.8574        152
  18.8760        149
  18.8945        169
  18.9131        160
  18.9317        159
  18.9503        169
  18.9689        166
  18.9874        137
  19.0060        176
  19.0246        161
  19.0432        198
  19.0617        153
  19.0803        164
  19.0989        161
  19.1175        163
  19.1360        183
  19.1546        160
  19.1732        156
  19.1918        163
  19.2103        184
  19.2289        185
  19.2475        177
  19.2661        166
  19.2846        163
  19.3032        182
  19.3218        162
  19.3404        182
  19.3589        173
  19.3775        167
  19.3961        193
  19.4147        167
  19.4332        178
  19.4518        196
  19.4704        166
  19.4890        170
  19.5075        174
  19.5261        188
  19.5447        162
  19.5633        181
  19.5818        180
  19.6004        184
  19.6190        166
  19.6376        169
  19.6561        175
  19.6747        147
  19.6933        154
  19.7119        162
  19.7305        173
  19.7490        180
  19.7676        189
  19.7862        160
  19.8048        157
  19.8233        183
  19.8419        175
  19.8605        179
  19.8791        176
  19.8976        186
  19.9162        164
  19.9348        160
  19.9534        178
  19.9719        212
  19.9905        166
  20.0091        175
  20.0277        191
  20.0462        187
  20.0648        176
  20.0834        194
  20.1020        185
  20.1205        167
  20.1391        178
  20.1577        182
  20.1763        194
  20.1948        169
  20.2134        172
  20.2320        182
  20.2506        183
  20.2691        183
  20.2877        187
  20.3063        199
  20.3249        182
  20.3434        159
  20.3620        179
  20.3806        178
  20.3992        162
  20.4177        169
  20.4363        209
  20.4549        202
  20.4735        192
  20.4921        160
  20.5106        180
  20.5292        205
  20.5478        217
  20.5664        184
  20.5849        199
  20.6035        187
  20.6221        180
  20.6407        186
  20.6592        171
  20.6778        196
  20.6964        203
  20.7150        182
  20.7335        216
  20.7521        196
  20.7707        193
  20.7893        192
  20.8078        181
  20.8264        174
  20.8450        205
  20.8636        168
  20.8821        165
  20.9007        181
  20.9193        223
  20.9379        182
  20.9564        165
  20.9750        234
  20.9936        184
  21.0122        201
  21.0307        192
  21.0493        205
  21.0679        213
  21.0865        213
  21.1050        208
  21.1236        202
  21.1422        207
  21.1608        219
  21.1793        233
  21.1979        298
  21.2165        338
  21.2351        357
  21.2537        348
  21.2722        328
  21.2908        335
  21.3094        261
  21.3280        413
  21.3465        511
  21.3651        579
  21.3837        392
  21.4023        385
  21.4208        374
  21.4394        268
  21.4580        221
  21.4766        219
  21.4951        183
  21.5137        191
  21.5323        204
  21.5509        181
  21.5694        181
  21.5880        193
  21.6066        172
  21.6252        189
  21.6437        200
  21.6623        215
  21.6809        185
  21.6995        186
  21.7180        186
  21.7366        175
  21.7552        201
  21.7738        205
  21.7923        183
  21.8109        188
  21.8295        199
  21.8481        185
  21.8666        194
  21.8852        196
  21.9038        201
  21.9224        183
  21.9409        212
  21.9595        189
  21.9781        190
  21.9967        228
  22.0152        157
  22.0338        189
  22.0524        192
  22.0710        187
  22.0896        219
  22.1081        178
  22.1267        214
  22.1453        195
  22.1639        214
  22.1824        185
  22.2010        180
  22.2196        221
  22.2382        198
  22.2567        195
  22.2753        205
  22.2939        205
  22.3125        180
  22.3310        186
  22.3496        216
  22.3682        203
  22.3868        208
  22.4053        193
  22.4239        222
  22.4425        194
  22.4611        184
  22.4796        174
  22.4982        191
  22.5168        181
  22.5354        181
  22.5539        190
  22.5725        203
  22.5911        190
  22.6097        172
  22.6282        203
  22.6468        180
  22.6654        202
  22.6840        219
  22.7025        212
  22.7211        200
  22.7397        198
  22.7583        188
  22.7768        201
  22.7954        216
  22.8140        209
  22.8326        228
  22.8512        217
  22.8697        186
  22.8883        215
  22.9069        192
  22.9255        204
  22.9440        204
  22.9626        181
  22.9812        208
  22.9998        224
  23.0183        213
  23.0369        197
  23.0555        184
  23.0741        194
  23.0926        195
  23.1112        188
  23.1298        202
  23.1484        190
  23.1669        171
  23.1855        217
  23.2041        182
  23.2227        198
  23.2412        191
  23.2598        194
  23.2784        227
  23.2970        215
  23.3155        180
  23.3341        213
  23.3527        217
  23.3713        209
  23.3898        182
  23.4084        207
  23.4270        200
  23.4456        202
  23.4641        199
  23.4827        202
  23.5013        183
  23.5199        191
  23.5384        184
  23.5570        174
  23.5756        222
  23.5942        213
  23.6128        212
  23.6313        227
  23.6499        179
  23.6685        240
  23.6871        197
  23.7056        222
  23.7242        208
  23.7428        232
  23.7614        209
  23.7799        191
  23.7985        181
  23.8171        191
  23.8357        205
  23.8542        207
  23.8728        211
  23.8914        191
  23.9100        207
  23.9285        231
  23.9471        208
  23.9657        199
  23.9843        208
  24.0028        226
  24.0214        207
  24.0400        210
  24.0586        178
  24.0771        197
  24.0957        200
  24.1143        182
  24.1329        204
  24.1514        218
  24.1700        189
  24.1886        184
  24.2072        227
  24.2257        225
  24.2443        208
  24.2629        211
  24.2815        222
  24.3000        259
  24.3186        240
  24.3372        225
  24.3558        216
  24.3744        210
  24.3929        183
  24.4115        199
  24.4301        220
  24.4487        202
  24.4672        208
  24.4858        203
  24.5044        197
  24.5230        197
  24.5415        211
  24.5601        181
  24.5787        208
  24.5973        211
  24.6158        189
  24.6344        194
  24.6530        188
  24.6716        197
  24.6901        216
  24.7087        191
  24.7273        204
  24.7459        223
  24.7644        203
  24.7830        214
  24.8016        171
  24.8202        192
  24.8387        186
  24.8573        187
  24.8759        184
  24.8945        212
  24.9130        182
  24.9316        199
  24.9502        229
  24.9688        176
  24.9873        195
  25.0059        193
  25.0245        185
  25.0431        188
  25.0616        172
  25.0802        207
  25.0988        215
  25.1174        201
  25.1360        194
  25.1545        212
  25.1731        198
  25.1917        180
  25.2103        181
  25.2288        181
  25.2474        194
  25.2660        200
  25.2846        202
  25.3031        191
  25.3217        197
  25.3403        190
  25.3589        203
  25.3774        165
  25.3960        231
  25.4146        196
  25.4332        204
  25.4517        182
  25.4703        179
  25.4889        213
  25.5075        189
  25.5260        211
  25.5446        161
  25.5632        182
  25.5818        174
  25.6003        209
  25.6189        207
  25.6375        167
  25.6561        212
  25.6746        194
  25.6932        193
  25.7118        195
  25.7304        193
  25.7489        187
  25.7675        173
  25.7861        173
  25.8047        198
  25.8232        189
  25.8418        210
  25.8604        198
  25.8790        202
  25.8976        211
  25.9161        187
  25.9347        168
  25.9533        203
  25.9719        195
  25.9904        192
  26.0090        190
  26.0276        200
  26.0462        198
  26.0647        189
  26.0833        169
  26.1019        194
  26.1205        223
  26.1390        191
  26.1576        218
  26.1762        176
  26.1948        207
  26.2133        194
  26.2319        214
  26.2505        180
  26.2691        185
  26.2876        185
  26.3062        190
  26.3248        209
  26.3434        184
  26.3619        161
  26.3805        188
  26.3991        205
  26.4177        179
  26.4362        178
  26.4548        170
  26.4734        211
  26.4920        188
  26.5105        212
  26.5291        195
  26.5477        180
  26.5663        185
  26.5848        214
  26.6034        166
  26.6220        179
  26.6406        189
  26.6591        178
  26.6777        180
  26.6963        167
  26.7149        179
  26.7335        183
  26.7520        202
  26.7706        204
  26.7892        165
  26.8078        201
  26.8263        170
  26.8449        190
  26.8635        192
  26.8821        188
  26.9006        178
  26.9192        184
  26.9378        194
  26.9564        185
  26.9749        205
  26.9935        204
  27.0121        201
  27.0307        187
  27.0492        186
  27.0678        199
  27.0864        197
  27.1050        218
  27.1235        223
  27.1421        203
  27.1607        197
  27.1793        220
  27.1978        251
  27.2164        234
  27.2350        224
  27.2536        218
  27.2721        221
  27.2907        232
  27.3093        180
  27.3279        203
  27.3464        195
  27.3650        181
  27.3836        195
  27.4022        191
  27.4207        200
  27.4393        217
  27.4579        191
  27.4765        172
  27.4951        180
  27.5136        199
  27.5322        191
  27.5508        166
  27.5694        181
  27.5879        188
  27.6065        172
  27.6251        192
  27.6437        170
  27.6622        184
  27.6808        179
  27.6994        186
  27.7180        176
  27.7365        186
  27.7551        150
  27.7737        179
  27.7923        194
  27.8108        184
  27.8294        190
  27.8480        196
  27.8666        180
  27.8851        179
  27.9037        155
  27.9223        184
  27.9409        178
  27.9594        180
  27.9780        199
  27.9966        161
  28.0152        164
  28.0337        184
  28.0523        186
  28.0709        158
  28.0895        177
  28.1080        188
  28.1266        170
  28.1452        184
  28.1638        169
  28.1823        165
  28.2009        140
  28.2195        197
  28.2381        168
  28.2567        165
  28.2752        162
  28.2938        190
  28.3124        165
  28.3310        164
  28.3495        151
  28.3681        187
  28.3867        165
  28.4053        188
  28.4238        166
  28.4424        154
  28.4610        144
  28.4796        165
  28.4981        162
  28.5167        170
  28.5353        157
  28.5539        203
  28.5724        185
  28.5910        166
  28.6096        174
  28.6282        186
  28.6467        155
  28.6653        148
  28.6839        170
  28.7025        173
  28.7210        167
  28.7396        154
  28.7582        179
  28.7768        186
  28.7953        164
  28.8139        172
  28.8325        152
  28.8511        160
  28.8696        151
  28.8882        179
  28.9068        171
  28.9254        164
  28.9439        181
  28.9625        166
  28.9811        149
  28.9997        135
  29.0183        181
  29.0368        171
  29.0554        156
  29.0740        159
  29.0926        170
  29.1111        165
  29.1297        160
  29.1483        170
  29.1669        167
  29.1854        157
  29.2040        151
  29.2226        164
  29.2412        165
  29.2597        166
  29.2783        151
  29.2969        160
  29.3155        164
  29.3340        188
  29.3526        160
  29.3712        143
  29.3898        153
  29.4083        154
  29.4269        149
  29.4455        154
  29.4641        153
  29.4826        164
  29.5012        161
  29.5198        138
  29.5384        159
  29.5569        150
  29.5755        165
  29.5941        162
  29.6127        161
  29.6312        163
  29.6498        163
  29.6684        168
  29.6870        161
  29.7055        166
  29.7241        143
  29.7427        181
  29.7613        158
  29.7799        159
  29.7984        159
  29.8170        172
  29.8356        163
  29.8542        148
  29.8727        180
  29.8913        144
  29.9099        140
  29.9285        139
  29.9470        155
  29.9656        168
  29.9842        135
  30.0028        160
  30.0213        152
  30.0399        133
  30.0585        154
  30.0771        159
  30.0956        170
  30.1142        170
  30.1328        147
  30.1514        171
  30.1699        154
  30.1885        175
  30.2071        161
  30.2257        166
  30.2442        169
  30.2628        204
  30.2814        169
  30.3000        165
  30.3185        171
  30.3371        209
  30.3557        244
  30.3743        335
  30.3928        349
  30.4114        283
  30.4300        240
  30.4486        240
  30.4671        240
  30.4857        225
  30.5043        184
  30.5229        151
  30.5415        157
  30.5600        139
  30.5786        168
  30.5972        192
  30.6158        168
  30.6343        145
  30.6529        162
  30.6715        170
  30.6901        163
  30.7086        150
  30.7272        159
  30.7458        157
  30.7644        134
  30.7829        153
  30.8015        174
  30.8201        161
  30.8387        154
  30.8572        145
  30.8758        148
  30.8944        156
  30.9130        157
  30.9315        134
  30.9501        141
  30.9687        121
  30.9873        152
  31.0058        140
  31.0244        145
  31.0430        147
  31.0616        163
  31.0801        129
  31.0987        141
  31.1173        148
  31.1359        164
  31.1544        164
  31.1730        141
  31.1916        158
  31.2102        129
  31.2287        131
  31.2473        132
  31.2659        147
  31.2845        128
  31.3030        139
  31.3216        122
  31.3402        153
  31.3588        150
  31.3774        133
  31.3959        160
  31.4145        142
  31.4331        125
  31.4517        138
  31.4702        156
  31.4888        130
  31.5074        149
  31.5260        142
  31.5445        138
  31.5631        150
  31.5817        154
  31.6003        155
  31.6188        139
  31.6374        130
  31.6560        139
  31.6746        138
  31.6931        150
  31.7117        138
  31.7303        157
  31.7489        135
  31.7674        124
  31.7860        139
  31.8046        139
  31.8232        123
  31.8417        143
  31.8603        148
  31.8789        138
  31.8975        147
  31.9160        138
  31.9346        143
  31.9532        147
  31.9718        121
  31.9903        144
  32.0089        136
  32.0275        143
  32.0461        151
  32.0646        116
  32.0832        137
  32.1018        113
  32.1204        113
  32.1390        158
  32.1575        124
  32.1761        122
  32.1947        118
  32.2133        135
  32.2318        110
  32.2504        127
  32.2690        112
  32.2876        144
  32.3061        156
  32.3247        128
  32.3433        150
  32.3619        150
  32.3804        131
  32.3990        152
  32.4176        130
  32.4362        152
  32.4547        145
  32.4733        134
  32.4919        129
  32.5105        134
  32.5290        178
  32.5476        132
  32.5662        138
  32.5848        151
  32.6033        139
  32.6219        119
  32.6405        144
  32.6591        150
  32.6776        128
  32.6962        147
  32.7148        117
  32.7334        135
  32.7519        133
  32.7705        139
  32.7891        128
  32.8077        136
  32.8262        131
  32.8448        111
  32.8634        132
  32.8820        136
  32.9006        124
  32.9191        140
  32.9377        119
  32.9563        130
  32.9749        109
  32.9934        136
  33.0120        117
  33.0306        121
  33.0492        129
  33.0677        107
  33.0863        137
  33.1049        113
  33.1235        123
  33.1420        115
  33.1606        119
  33.1792        120
  33.1978        119
  33.2163        113
  33.2349        112
  33.2535        117
  33.2721        117
  33.2906        100
  33.3092        105
  33.3278        136
  33.3464        118
  33.3649        107
  33.3835        129
  33.4021        104
  33.4207        111
  33.4392        131
  33.4578        131
  33.4764         97
  33.4950        126
  33.5135        131
  33.5321         95
  33.5507        102
  33.5693        119
  33.5878        130
  33.6064        107
  33.6250        138
  33.6436        126
  33.6622        120
  33.6807        118
  33.6993         92
  33.7179        116
  33.7365        105
  33.7550        117
  33.7736        133
  33.7922        116
  33.8108        109
  33.8293        119
  33.8479        129
  33.8665        108
  33.8851        114
  33.9036        120
  33.9222        115
  33.9408        102
  33.9594        107
  33.9779        109
  33.9965        120
  34.0151        103
  34.0337        116
  34.0522        109
  34.0708        117
  34.0894        105
  34.1080        124
  34.1265        118
  34.1451        115
  34.1637        106
  34.1823        114
  34.2008        106
  34.2194        120
  34.2380        119
  34.2566        106
  34.2751        109
  34.2937        121
  34.3123        109
  34.3309        122
  34.3494        108
  34.3680        118
  34.3866         98
  34.4052        109
  34.4238        111
  34.4423        106
  34.4609        118
  34.4795        132
  34.4981        122
  34.5166        115
  34.5352        102
  34.5538        126
  34.5724        101
  34.5909        123
  34.6095        110
  34.6281        121
  34.6467        119
  34.6652        137
  34.6838        113
  34.7024        139
  34.7210        163
  34.7395        136
  34.7581        145
  34.7767        163
  34.7953        130
  34.8138        130
  34.8324        117
  34.8510        153
  34.8696        139
  34.8881        102
  34.9067        102
  34.9253        122
  34.9439        113
  34.9624        117
  34.9810        110
  34.9996        130
  35.0182        113
  35.0367        111
  35.0553        125
  35.0739        103
  35.0925         94
  35.1110        112
  35.1296        104
  35.1482        105
  35.1668        131
  35.1854         98
  35.2039        114
  35.2225         99
  35.2411        120
  35.2597        118
  35.2782        101
  35.2968        106
  35.3154        120
  35.3340        104
  35.3525        104
  35.3711        100
  35.3897         92
  35.4083        103
  35.4268        125
  35.4454        107
  35.4640        106
  35.4826        100
  35.5011        109
  35.5197        107
  35.5383        111
  35.5569        107
  35.5754         86
  35.5940        114
  35.6126        103
  35.6312        117
  35.6497         95
  35.6683        101
  35.6869        103
  35.7055        104
  35.7240        102
  35.7426         95
  35.7612        111
  35.7798         93
  35.7983         97
  35.8169        107
  35.8355         97
  35.8541        115
  35.8726         88
  35.8912         96
  35.9098        106
  35.9284         96
  35.9469        107
  35.9655         88
  35.9841         90
  36.0027        101
  36.0213         95
  36.0398         85
  36.0584         88
  36.0770        107
  36.0956        114
  36.1141         90
  36.1327         88
  36.1513         85
  36.1699         94
  36.1884         97
  36.2070        102
  36.2256         83
  36.2442        106
  36.2627         90
  36.2813        101
  36.2999         80
  36.3185         97
  36.3370         91
  36.3556        109
  36.3742         85
  36.3928         90
  36.4113         86
  36.4299         98
  36.4485        104
  36.4671        105
  36.4856         89
  36.5042        110
  36.5228         91
  36.5414         96
  36.5599         84
  36.5785         92
  36.5971         74
  36.6157         88
  36.6342        101
  36.6528         94
  36.6714         91
  36.6900         91
  36.7085        112
  36.7271         92
  36.7457        105
  36.7643        103
  36.7829         92
  36.8014         86
  36.8200         99
  36.8386        101
  36.8572         91
  36.8757         86
  36.8943         98
  36.9129         87
  36.9315         82
  36.9500         86
  36.9686         93
  36.9872         88
  37.0058         91
  37.0243         80
  37.0429         92
  37.0615         87
  37.0801         94
  37.0986         99
  37.1172         84
  37.1358         80
  37.1544        106
  37.1729        105
  37.1915         85
  37.2101         91
  37.2287         82
  37.2472         91
  37.2658         95
  37.2844        105
  37.3030         95
  37.3215        110
  37.3401         81
  37.3587         91
  37.3773         83
  37.3958        111
  37.4144        100
  37.4330        151
  37.4516        143
  37.4701        140
  37.4887        139
  37.5073        114
  37.5259        132
  37.5445        129
  37.5630        104
  37.5816        107
  37.6002         86
  37.6188         86
  37.6373         72
  37.6559        114
  37.6745         79
  37.6931         85
  37.7116         85
  37.7302         91
  37.7488         87
  37.7674         92
  37.7859         86
  37.8045         89
  37.8231         96
  37.8417         90
  37.8602         87
  37.8788         89
  37.8974        101
  37.9160         94
  37.9345         89
  37.9531         87
  37.9717         86
  37.9903         82
  38.0088         80
  38.0274         83
  38.0460         94
  38.0646         88
  38.0831         93
  38.1017         96
  38.1203         86
  38.1389         72
  38.1574         61
  38.1760         80
  38.1946         73
  38.2132         91
  38.2317         91
  38.2503         97
  38.2689         85
  38.2875         70
  38.3061         87
  38.3246         88
  38.3432         63
  38.3618         90
  38.3804         90
  38.3989         87
  38.4175         88
  38.4361         80
  38.4547         71
  38.4732         90
  38.4918         71
  38.5104         83
  38.5290        102
  38.5475         85
  38.5661         72
  38.5847         63
  38.6033         96
  38.6218         82
  38.6404         78
  38.6590         87
  38.6776         76
  38.6961         90
  38.7147         82
  38.7333         96
  38.7519         73
  38.7704         87
  38.7890         73
  38.8076         86
  38.8262         93
  38.8447         77
  38.8633         84
  38.8819         88
  38.9005         98
  38.9190         89
  38.9376         73
  38.9562         69
  38.9748         90
  38.9933         84
  39.0119         74
  39.0305         94
  39.0491         86
  39.0677         87
  39.0862        106
  39.1048         88
  39.1234         85
  39.1420         81
  39.1605         90
  39.1791         82
  39.1977         83
  39.2163         86
  39.2348         87
  39.2534         85
  39.2720         94
  39.2906         81
  39.3091         82
  39.3277         70
  39.3463         91
  39.3649         84
  39.3834         72
  39.4020         80
  39.4206         73
  39.4392         75
  39.4577         58
  39.4763         83
  39.4949         76
  39.5135         87
  39.5320         68
  39.5506         94
  39.5692         91
  39.5878         80
  39.6063         94
  39.6249         82
  39.6435         80
  39.6621         78
  39.6806         96
  39.6992        101
  39.7178         57
  39.7364         91
  39.7549         86
  39.7735         83
  39.7921         92
  39.8107         63
  39.8293         89
  39.8478         85
  39.8664         84
  39.8850         82
  39.9036         72
  39.9221         78
  39.9407         69
  39.9593         95
  39.9779         75
  39.9964         84
  40.0150         65
  40.0336         80
  40.0522         86
  40.0707         80
  40.0893         68
  40.1079         77
  40.1265         81
  40.1450         91
  40.1636         79
  40.1822         67
  40.2008         77
  40.2193         72
  40.2379         66
  40.2565         71
  40.2751         81
  40.2936        102
  40.3122         71
  40.3308         67
  40.3494         51
  40.3679         80
  40.3865         83
  40.4051         83
  40.4237         80
  40.4422         66
  40.4608         76
  40.4794         84
  40.4980         74
  40.5165         94
  40.5351         64
  40.5537         70
  40.5723         66
  40.5908         76
  40.6094         85
  40.6280         61
  40.6466         68
  40.6652         66
  40.6837         82
  40.7023         65
  40.7209         82
  40.7395         81
  40.7580         81
  40.7766         74
  40.7952         97
  40.8138         74
  40.8323         68
  40.8509         86
  40.8695         80
  40.8881         75
  40.9066         82
  40.9252         70
  40.9438         69
  40.9624        105
  40.9809         70
  40.9995         90
  41.0181         75
  41.0367         69
  41.0552         93
  41.0738        100
  41.0924         97
  41.1110         74
  41.1295         86
  41.1481         63
  41.1667         72
  41.1853         67
  41.2038         71
  41.2224         79
  41.2410         80
  41.2596         80
  41.2781         76
  41.2967         85
  41.3153         79
  41.3339         57
  41.3524         90
  41.3710         70
  41.3896         75
  41.4082         80
  41.4268         80
  41.4453         85
  41.4639         69
  41.4825         71
  41.5011         73
  41.5196         80
  41.5382         77
  41.5568         74
  41.5754         85
  41.5939         77
  41.6125         75
  41.6311         68
  41.6497         64
  41.6682         78
  41.6868         89
  41.7054         69
  41.7240         72
  41.7425         73
  41.7611         60
  41.7797         76
  41.7983         65
  41.8168         69
  41.8354         72
  41.8540         54
  41.8726         74
  41.8911         69
  41.9097         76
  41.9283         63
  41.9469         69
  41.9654         86
  41.9840         56
  42.0026         72
  42.0212         80
  42.0397         77
  42.0583         85
  42.0769         71
  42.0955         90
  42.1140         73
  42.1326         79
  42.1512         89
  42.1698         71
  42.1884         77
  42.2069         61
  42.2255         85
  42.2441         80
  42.2627         66
  42.2812         70
  42.2998         70
  42.3184         72
  42.3370         72
  42.3555         85
  42.3741         70
  42.3927         70
  42.4113         72
  42.4298         73
  42.4484         78
  42.4670         66
  42.4856         64
  42.5041         75
  42.5227         89
  42.5413         68
  42.5599         66
  42.5784         70
  42.5970         73
  42.6156         72
  42.6342         63
  42.6527         64
  42.6713         65
  42.6899         80
  42.7085         68
  42.7270         74
  42.7456         65
  42.7642         66
  42.7828         84
  42.8013         71
  42.8199         86
  42.8385         85
  42.8571         80
  42.8756         71
  42.8942         79
  42.9128         76
  42.9314         59
  42.9500         60
  42.9685         67
  42.9871         73
  43.0057         74
  43.0243         74
  43.0428         43
  43.0614         79
  43.0800         85
  43.0986         82
  43.1171         87
  43.1357         80
  43.1543         79
  43.1729         90
  43.1914         70
  43.2100         83
  43.2286         98
  43.2472        100
  43.2657         86
  43.2843         88
  43.3029         88
  43.3215         74
  43.3400         85
  43.3586         92
  43.3772         78
  43.3958         88
  43.4143         66
  43.4329        100
  43.4515         92
  43.4701         97
  43.4886        132
  43.5072        150
  43.5258        120
  43.5444         99
  43.5629         94
  43.5815         85
  43.6001        100
  43.6187         88
  43.6372         97
  43.6558        105
  43.6744         85
  43.6930         76
  43.7116         76
  43.7301         64
  43.7487         78
  43.7673         66
  43.7859         69
  43.8044         77
  43.8230         71
  43.8416         88
  43.8602         77
  43.8787         89
  43.8973         88
  43.9159         78
  43.9345         75
  43.9530         69
  43.9716         73
  43.9902         66
  44.0088         63
  44.0273         65
  44.0459         81
  44.0645         62
  44.0831         58
  44.1016         81
  44.1202         80
  44.1388         74
  44.1574         80
  44.1759         61
  44.1945         70
  44.2131         86
  44.2317         56
  44.2502         89
  44.2688         79
  44.2874         90
  44.3060         88
  44.3245         60
  44.3431         89
  44.3617         80
  44.3803         75
  44.3988         67
  44.4174         79
  44.4360         72
  44.4546         77
  44.4732         87
  44.4917         85
  44.5103         81
  44.5289         73
  44.5475         88
  44.5660         86
  44.5846         62
  44.6032         87
  44.6218         78
  44.6403         84
  44.6589         75
  44.6775         75
  44.6961        100
  44.7146        105
  44.7332         76
  44.7518         67
  44.7704         79
  44.7889         59
  44.8075         90
  44.8261         71
  44.8447         71
  44.8632         65
  44.8818         60
  44.9004         76
  44.9190         68
  44.9375         69
  44.9561         70
  44.9747         81
  44.9933         78
  45.0118         67
  45.0304         60
  45.0490         78
  45.0676         83
  45.0861         78
  45.1047         62
  45.1233         68
  45.1419         79
  45.1604         63
  45.1790         83
  45.1976         66
  45.2162         75
  45.2347         63
  45.2533         72
  45.2719         70
  45.2905         56
  45.3091         59
  45.3276         62
  45.3462         63
  45.3648         72
  45.3834         70
  45.4019         62
  45.4205         67
  45.4391         79
  45.4577         55
  45.4762         51
  45.4948         75
  45.5134         67
  45.5320         75
  45.5505         78
  45.5691         68
  45.5877         84
  45.6063         64
  45.6248         62
  45.6434         58
  45.6620         70
  45.6806         74
  45.6991         61
  45.7177         68
  45.7363         67
  45.7549         63
  45.7734         76
  45.7920         68
  45.8106         62
  45.8292         86
  45.8477         63
  45.8663         62
  45.8849         64
  45.9035         73
  45.9220         58
  45.9406         68
  45.9592         73
  45.9778         61
  45.9963         89
  46.0149         60
  46.0335         60
  46.0521         68
  46.0707         75
  46.0892         56
  46.1078         65
  46.1264         76
  46.1450         79
  46.1635         82
  46.1821         67
  46.2007         64
  46.2193         75
  46.2378         79
  46.2564         71
  46.2750         80
  46.2936         84
  46.3121         71
  46.3307         66
  46.3493         60
  46.3679         76
  46.3864         58
  46.4050         72
  46.4236         62
  46.4422         54
  46.4607         69
  46.4793         56
  46.4979         71
  46.5165         77
  46.5350         60
  46.5536         53
  46.5722         56
  46.5908         81
  46.6093         66
  46.6279         70
  46.6465         66
  46.6651         79
  46.6836         68
  46.7022         50
  46.7208         58
  46.7394         68
  46.7579         67
  46.7765         67
  46.7951         64
  46.8137         58
  46.8323         83
  46.8508         55
  46.8694         64
  46.8880         63
  46.9066         42
  46.9251         72
  46.9437         63
  46.9623         72
  46.9809         61
  46.9994         66
  47.0180         62
  47.0366         62
  47.0552         67
  47.0737         74
  47.0923         46
  47.1109         64
  47.1295         61
  47.1480         69
  47.1666         63
  47.1852         72
  47.2038         62
  47.2223         56
  47.2409         57
  47.2595         68
  47.2781         67
  47.2966         63
  47.3152         56
  47.3338         62
  47.3524         42
  47.3709         57
  47.3895         70
  47.4081         62
  47.4267         69
  47.4452         66
  47.4638         81
  47.4824         60
  47.5010         64
  47.5195         61
  47.5381         64
  47.5567         79
  47.5753         74
  47.5939         50
  47.6124         61
  47.6310         69
  47.6496         77
  47.6682         58
  47.6867         73
  47.7053         63
  47.7239         55
  47.7425         61
  47.7610         70
  47.7796         66
  47.7982         77
  47.8168         61
  47.8353         72
  47.8539         51
  47.8725         60
  47.8911         60
  47.9096         50
  47.9282         54
  47.9468         67
  47.9654         49
  47.9839         58
  48.0025         68
  48.0211         52
  48.0397         69
  48.0582         61
  48.0768         70
  48.0954         62
  48.1140         57
  48.1325         71
  48.1511         54
  48.1697         71
  48.1883         80
  48.2068         59
  48.2254         60
  48.2440         61
  48.2626         62
  48.2811         69
  48.2997         51
  48.3183         66
  48.3369         64
  48.3555         74
  48.3740         69
  48.3926         60
  48.4112         86
  48.4298         48
  48.4483         51
  48.4669         61
  48.4855         78
  48.5041         64
  48.5226         67
  48.5412         65
  48.5598         73
  48.5784         74
  48.5969         77
  48.6155         63
  48.6341         66
  48.6527         77
  48.6712         60
  48.6898         79
  48.7084         62
  48.7270         60
  48.7455         65
  48.7641         71
  48.7827         68
  48.8013         68
  48.8198         52
  48.8384         70
  48.8570         67
  48.8756         67
  48.8941         72
  48.9127         66
  48.9313         93
  48.9499         99
  48.9684        115
  48.9870        100
  49.0056         78
  49.0242         73
  49.0427        101
  49.0613         83
  49.0799         81
  49.0985         96
  49.1171         82
  49.1356         75
  49.1542         67
  49.1728         53
  49.1914         66
  49.2099         75
  49.2285         67
  49.2471         57
  49.2657         65
  49.2842         60
  49.3028         80
  49.3214         60
  49.3400         72
  49.3585         51
  49.3771         56
  49.3957         68
  49.4143         51
  49.4328         54
  49.4514         48
  49.4700         52
  49.4886         52
  49.5071         59
  49.5257         49
  49.5443         52
  49.5629         55
  49.5814         78
  49.6000         54
  49.6186         70
  49.6372         48
  49.6557         56
  49.6743         66
  49.6929         66
  49.7115         75
  49.7300         61
  49.7486         61
  49.7672         54
  49.7858         51
  49.8043         75
  49.8229         56
  49.8415         63
  49.8601         61
  49.8786         65
  49.8972         67
  49.9158         68
  49.9344         62
  49.9530         70
  49.9715         69
  49.9901         78
  50.0087         75
  50.0273         67
  50.0458         57
  50.0644         54
  50.0830         66
  50.1016         64
  50.1201         58
  50.1387         63
  50.1573         80
  50.1759         72
  50.1944         45
  50.2130         70
  50.2316         52
  50.2502         72
  50.2687         56
  50.2873         66
  50.3059         84
  50.3245         71
  50.3430         51
  50.3616         69
  50.3802         44
  50.3988         67
  50.4173         62
  50.4359         61
  50.4545         75
  50.4731         64
  50.4916         53
  50.5102         57
  50.5288         63
  50.5474         66
  50.5659         47
  50.5845         62
  50.6031         56
  50.6217         61
  50.6402         55
  50.6588         64
  50.6774         63
  50.6960         56
  50.7146         53
  50.7331         72
  50.7517         52
  50.7703         48
  50.7889         53
  50.8074         73
  50.8260         59
  50.8446         68
  50.8632         68
  50.8817         61
  50.9003         53
  50.9189         64
  50.9375         49
  50.9560         50
  50.9746         54
  50.9932         58
  51.0118         54
  51.0303         58
  51.0489         64
  51.0675         66
  51.0861         57
  51.1046         71
  51.1232         59
  51.1418         58
  51.1604         66
  51.1789         71
  51.1975         60
  51.2161         47
  51.2347         52
  51.2532         61
  51.2718         68
  51.2904         52
  51.3090         56
  51.3275         60
  51.3461         75
  51.3647         68
  51.3833         68
  51.4018         90
  51.4204         72
  51.4390         71
  51.4576         64
  51.4762         70
  51.4947         56
  51.5133         66
  51.5319         69
  51.5505         73
  51.5690         66
  51.5876         67
  51.6062         54
  51.6248         72
  51.6433         55
  51.6619         65
  51.6805         66
  51.6991         84
  51.7176         56
  51.7362         65
  51.7548         54
  51.7734         71
  51.7919         65
  51.8105         69
  51.8291         67
  51.8477         73
  51.8662         70
  51.8848         51
  51.9034         59
  51.9220         71
  51.9405         73
  51.9591         57
  51.9777         67
  51.9963         64
  52.0148         71
  52.0334         78
  52.0520         63
  52.0706         39
  52.0891         62
  52.1077         58
  52.1263         60
  52.1449         67
  52.1634         61
  52.1820         45
  52.2006         52
  52.2192         43
  52.2378         68
  52.2563         57
  52.2749         64
  52.2935         58
  52.3121         69
  52.3306         53
  52.3492         51
  52.3678         60
  52.3864         58
  52.4049         62
  52.4235         51
  52.4421         54
  52.4607         66
  52.4792         67
  52.4978         56
  52.5164         68
  52.5350         43
  52.5535         45
  52.5721         55
  52.5907         64
  52.6093         68
  52.6278         62
  52.6464         67
  52.6650         73
  52.6836         76
  52.7021         54
  52.7207         43
  52.7393         59
  52.7579         62
  52.7764         69
  52.7950         63
  52.8136         52
  52.8322         48
  52.8507         57
  52.8693         69
  52.8879         49
  52.9065         65
  52.9250         55
  52.9436         55
  52.9622         58
  52.9808         53
  52.9994         64
  53.0179         50
  53.0365         77
  53.0551         69
  53.0737         70
  53.0922         52
  53.1108         60
  53.1294         72
  53.1480         49
  53.1665         56
  53.1851         63
  53.2037         52
  53.2223         66
  53.2408         69
  53.2594         67
  53.2780         45
  53.2966         66
  53.3151         56
  53.3337         53
  53.3523         54
  53.3709         67
  53.3894         47
  53.4080         51
  53.4266         60
  53.4452         52
  53.4637         55
  53.4823         58
  53.5009         50
  53.5195         61
  53.5380         36
  53.5566         54
  53.5752         64
  53.5938         58
  53.6123         72
  53.6309         63
  53.6495         58
  53.6681         59
  53.6866         57
  53.7052         49
  53.7238         56
  53.7424         64
  53.7610         62
  53.7795         57
  53.7981         56
  53.8167         62
  53.8353         66
  53.8538         59
  53.8724         56
  53.8910         74
  53.9096         66
  53.9281         71
  53.9467         78
  53.9653         81
  53.9839         99
  54.0024         79
  54.0210         78
  54.0396         77
  54.0582         62
  54.0767         65
  54.0953         62
  54.1139         71
  54.1325         84
  54.1510         68
  54.1696         61
  54.1882         55
  54.2068         64
  54.2253         67
  54.2439         53
  54.2625         64
  54.2811         58
  54.2996         68
  54.3182         54
  54.3368         57
  54.3554         44
  54.3739         67
  54.3925         52
  54.4111         66
  54.4297         62
  54.4482         50
  54.4668         59
  54.4854         48
  54.5040         64
  54.5225         51
  54.5411         69
  54.5597         58
  54.5783         47
  54.5969         59
  54.6154         63
  54.6340         53
  54.6526         58
  54.6712         57
  54.6897         52
  54.7083         66
  54.7269         57
  54.7455         70
  54.7640         36
  54.7826         51
  54.8012         68
  54.8198         54
  54.8383         51
  54.8569         55
  54.8755         54
  54.8941         56
  54.9126         52
  54.9312         61
  54.9498         54
  54.9684         63
  54.9869         55
  55.0055         41
  55.0241         49
  55.0427         49
  55.0612         63
  55.0798         56
  55.0984         55
  55.1170         56
  55.1355         52
  55.1541         60
  55.1727         47
  55.1913         54
  55.2098         59
  55.2284         51
  55.2470         68
  55.2656         68
  55.2841         46
  55.3027         54
  55.3213         48
  55.3399         36
  55.3585         47
  55.3770         36
  55.3956         59
  55.4142         66
  55.4328         63
  55.4513         58
  55.4699         68
  55.4885         54
  55.5071         50
  55.5256         60
  55.5442         56
  55.5628         62
  55.5814         73
  55.5999         66
  55.6185         59
  55.6371         60
  55.6557         50
  55.6742         56
  55.6928         50
  55.7114         40
  55.7300         43
  55.7485         45
  55.7671         53
  55.7857         48
  55.8043         54
  55.8228         55
  55.8414         58
  55.8600         56
  55.8786         56
  55.8971         52
  55.9157         60
  55.9343         51
  55.9529         63
  55.9714         61
  55.9900         64
  56.0086         49
  56.0272         48
  56.0457         75
  56.0643         51
  56.0829         71
  56.1015         50
  56.1201         54
  56.1386         52
  56.1572         71
  56.1758         66
  56.1944         47
  56.2129         67
  56.2315         64
  56.2501         59
  56.2687         68
  56.2872         56
  56.3058         53
  56.3244         58
  56.3430         51
  56.3615         61
  56.3801         59
  56.3987         44
  56.4173         66
  56.4358         64
  56.4544         65
  56.4730         66
  56.4916         63
  56.5101         62
  56.5287         65
  56.5473         52
  56.5659         61
  56.5844         38
  56.6030         73
  56.6216         56
  56.6402         61
  56.6587         44
  56.6773         52
  56.6959         61
  56.7145         50
  56.7330         52
  56.7516         53
  56.7702         53
  56.7888         44
  56.8073         67
  56.8259         50
  56.8445         55
  56.8631         47
  56.8817         52
  56.9002         61
  56.9188         64
  56.9374         59
  56.9560         60
  56.9745         60
  56.9931         61
  57.0117         66
  57.0303         71
  57.0488         57
  57.0674         56
  57.0860         52
  57.1046         41
  57.1231         55
  57.1417         65
  57.1603         57
  57.1789         68
  57.1974         48
  57.2160         47
  57.2346         76
  57.2532         59
  57.2717         55
  57.2903         66
  57.3089         54
  57.3275         54
  57.3460         61
  57.3646         64
  57.3832         63
  57.4018         59
  57.4203         47
  57.4389         53
  57.4575         49
  57.4761         53
  57.4946         55
  57.5132         56
  57.5318         63
  57.5504         61
  57.5689         58
  57.5875         65
  57.6061         56
  57.6247         57
  57.6433         58
  57.6618         46
  57.6804         65
  57.6990         57
  57.7176         60
  57.7361         62
  57.7547         71
  57.7733         42
  57.7919         63
  57.8104         70
  57.8290         57
  57.8476         61
  57.8662         51
  57.8847         68
  57.9033         61
  57.9219         68
  57.9405         50
  57.9590         48
  57.9776         67
  57.9962         57
  58.0148         65
  58.0333         50
  58.0519         51
  58.0705         65
  58.0891         56
  58.1076         61
  58.1262         52
  58.1448         56
  58.1634         54
  58.1819         53
  58.2005         43
  58.2191         62
  58.2377         55
  58.2562         53
  58.2748         45
  58.2934         43
  58.3120         56
  58.3305         50
  58.3491         43
  58.3677         54
  58.3863         50
  58.4049         56
  58.4234         61
  58.4420         46
  58.4606         53
  58.4792         59
  58.4977         63
  58.5163         65
  58.5349         58
  58.5535         58
  58.5720         47
  58.5906         64
  58.6092         74
  58.6278         65
  58.6463         42
  58.6649         55
  58.6835         72
  58.7021         54
  58.7206         48
  58.7392         55
  58.7578         47
  58.7764         49
  58.7949         57
  58.8135         52
  58.8321         58
  58.8507         52
  58.8692         60
  58.8878         52
  58.9064         48
  58.9250         44
  58.9435         40
  58.9621         48
  58.9807         53
  58.9993         56
  59.0178         71
  59.0364         60
  59.0550         51
  59.0736         48
  59.0921         59
  59.1107         46
  59.1293         54
  59.1479         63
  59.1664         50
  59.1850         51
  59.2036         53
  59.2222         51
  59.2408         56
  59.2593         47
  59.2779         57
  59.2965         45
  59.3151         48
  59.3336         59
  59.3522         53
  59.3708         45
  59.3894         46
  59.4079         52
  59.4265         58
  59.4451         49
  59.4637         64
  59.4822         55
  59.5008         49
  59.5194         60
  59.5380         48
  59.5565         57
  59.5751         55
  59.5937         54
  59.6123         55
  59.6308         50
  59.6494         44
  59.6680         56
  59.6866         61
  59.7051         61
  59.7237         63
  59.7423         59
  59.7609         55
  59.7794         46
  59.7980         56
  59.8166         53
  59.8352         45
  59.8537         63
  59.8723         54
  59.8909         52
  59.9095         60
  59.9280         51
  59.9466         56
  59.9652         45
  59.9838         58
  60.0024         38
