; (content of file Y:\Sam\Apurva-07-20-2022\puck1\ML_20220721_13_SJD_0_LaB6-4min.raw)
_FILEVERSION = 3
_SAMPLE = ML_20220721_13_SJD_0_LaB6-4min
_+SAMPLE = 
_SITE = USA
_USER = Administrator
_GONIOMETER_CODE = 20
; Goniometer : D8 theta/2theta, stage : Unknown
_ATTACHMENTS_CODE = 0
_GONIOMETER_RADIUS = 200.5
_FIXED_DIVSLIT = 0.6
_FIXED_SAMPLESLIT = 0
_SOLLER_SLITS = 2
_FIXED_DETSLIT = 9.55
_MONOCHROMATOR = 0
; Incident beam monochromator : None
_SOLLER_SLITS_2 = N
_THIN_FILM = N
_BETA_FILTER = Y
_FIXED_ANTISLIT = 5.89
_ANALYZER_CODE = 0
; Received beam analyzer : None
_DATEMEASURED = "25-Jul-2022 14:50:52"
_WL_UNIT = A
_WL1 = 1.5406
_WL2 = 1.54439
_WL3 = 1.39222
_WLRATIO = 0.5
_ANODE = Cu
_V4_INF_CREATOR = XRDWizard
_V4_INF_CREATOR_VERSION = V2.9.0.22
_V4_INF_WIZARD_VERSION = V2.9.0.22
_V4_INF_WIZARD_ADDINS = V2.9.0.22
_V4_INF_WIZARD_DOCTYPE = XRD
_V4_INF_OSUSER = McQueenLab
_V4_INF_USER = Administrator
_V4_INF_SITE = USA
_V4_INF_SAMPLEID = ML_20220721_13_SJD_0_LaB6-4min

; Data for range 1
_DRIVE = COUPLED
_STEPTIME = 11.28
_STEPSIZE = 0.0185756
_STEPMODE = C
_START = 5
_THETA = 2.5
_2THETA = 5
_KHI = 0
_PHI = 0
_X = 0
_Y = 0
_Z = 0
_DETECTOR = 5
; Detector type : Unknown
_DETECTORSLIT = unkn
_AUX1 = 0
_AUX2 = 0
_AUX3 = 0
_TIMESTARTED = 15
_TEMP_RATE = -1
_TEMP_DELAY = -1
_KV = 40
_MA = 40
_RANGE_WL = 1.5406
_3DPLANE = 0
_V4_ADDITIONALDETECTOR = 257
_V4_PSD2THETA = 3.3889
_V4_PSDCHANNEL1 = 0
_V4_PSDAPERTURE = 12.68
_V4_PSDTYPE = 5
_V4_PSDFIXED = 0
_V4_COUNTERS_MASK = 4096
_V4_DRIVES_MASK = 0
_V4_ENCODERS_MASK = 0
_2THETACOUNTS = 1
; 2THETA  PSD
   5.0000        288
   5.0186        306
   5.0372        297
   5.0557        265
   5.0743        271
   5.0929        263
   5.1115        245
   5.1300        245
   5.1486        256
   5.1672        283
   5.1858        258
   5.2043        252
   5.2229        224
   5.2415        257
   5.2601        257
   5.2786        244
   5.2972        242
   5.3158        238
   5.3344        271
   5.3529        206
   5.3715        257
   5.3901        253
   5.4087        253
   5.4272        236
   5.4458        264
   5.4644        236
   5.4830        265
   5.5015        217
   5.5201        230
   5.5387        205
   5.5573        223
   5.5758        238
   5.5944        208
   5.6130        222
   5.6316        236
   5.6501        236
   5.6687        227
   5.6873        237
   5.7059        209
   5.7244        220
   5.7430        212
   5.7616        207
   5.7802        206
   5.7988        199
   5.8173        199
   5.8359        207
   5.8545        214
   5.8731        204
   5.8916        197
   5.9102        204
   5.9288        215
   5.9474        196
   5.9659        189
   5.9845        195
   6.0031        191
   6.0217        215
   6.0402        198
   6.0588        184
   6.0774        195
   6.0960        207
   6.1145        184
   6.1331        175
   6.1517        188
   6.1703        206
   6.1888        177
   6.2074        203
   6.2260        178
   6.2446        187
   6.2631        189
   6.2817        210
   6.3003        182
   6.3189        180
   6.3374        184
   6.3560        183
   6.3746        191
   6.3932        208
   6.4117        202
   6.4303        178
   6.4489        159
   6.4675        146
   6.4860        177
   6.5046        188
   6.5232        185
   6.5418        175
   6.5604        195
   6.5789        188
   6.5975        172
   6.6161        197
   6.6347        174
   6.6532        169
   6.6718        204
   6.6904        180
   6.7090        158
   6.7275        206
   6.7461        151
   6.7647        156
   6.7833        187
   6.8018        170
   6.8204        160
   6.8390        169
   6.8576        158
   6.8761        153
   6.8947        186
   6.9133        160
   6.9319        180
   6.9504        158
   6.9690        182
   6.9876        153
   7.0062        150
   7.0247        158
   7.0433        152
   7.0619        168
   7.0805        170
   7.0990        175
   7.1176        168
   7.1362        165
   7.1548        142
   7.1733        162
   7.1919        168
   7.2105        159
   7.2291        149
   7.2476        184
   7.2662        161
   7.2848        162
   7.3034        167
   7.3220        154
   7.3405        160
   7.3591        196
   7.3777        165
   7.3963        164
   7.4148        148
   7.4334        169
   7.4520        167
   7.4706        198
   7.4891        180
   7.5077        172
   7.5263        163
   7.5449        171
   7.5634        174
   7.5820        185
   7.6006        178
   7.6192        174
   7.6377        174
   7.6563        178
   7.6749        161
   7.6935        196
   7.7120        181
   7.7306        163
   7.7492        213
   7.7678        191
   7.7863        183
   7.8049        178
   7.8235        195
   7.8421        174
   7.8606        177
   7.8792        205
   7.8978        161
   7.9164        174
   7.9349        178
   7.9535        158
   7.9721        184
   7.9907        187
   8.0092        221
   8.0278        188
   8.0464        193
   8.0650        186
   8.0835        210
   8.1021        176
   8.1207        174
   8.1393        184
   8.1579        177
   8.1764        182
   8.1950        195
   8.2136        193
   8.2322        190
   8.2507        177
   8.2693        208
   8.2879        177
   8.3065        211
   8.3250        207
   8.3436        200
   8.3622        178
   8.3808        204
   8.3993        179
   8.4179        202
   8.4365        177
   8.4551        194
   8.4736        213
   8.4922        184
   8.5108        195
   8.5294        193
   8.5479        185
   8.5665        188
   8.5851        217
   8.6037        186
   8.6222        201
   8.6408        222
   8.6594        216
   8.6780        201
   8.6965        177
   8.7151        214
   8.7337        204
   8.7523        201
   8.7708        190
   8.7894        216
   8.8080        216
   8.8266        180
   8.8451        211
   8.8637        201
   8.8823        214
   8.9009        208
   8.9195        226
   8.9380        210
   8.9566        220
   8.9752        199
   8.9938        217
   9.0123        231
   9.0309        211
   9.0495        211
   9.0681        215
   9.0866        210
   9.1052        247
   9.1238        231
   9.1424        230
   9.1609        202
   9.1795        239
   9.1981        256
   9.2167        203
   9.2352        221
   9.2538        231
   9.2724        243
   9.2910        194
   9.3095        231
   9.3281        219
   9.3467        237
   9.3653        210
   9.3838        230
   9.4024        215
   9.4210        230
   9.4396        263
   9.4581        236
   9.4767        243
   9.4953        201
   9.5139        219
   9.5324        221
   9.5510        229
   9.5696        232
   9.5882        205
   9.6067        234
   9.6253        253
   9.6439        230
   9.6625        233
   9.6811        222
   9.6996        222
   9.7182        217
   9.7368        211
   9.7554        227
   9.7739        236
   9.7925        246
   9.8111        227
   9.8297        251
   9.8482        237
   9.8668        275
   9.8854        218
   9.9040        210
   9.9225        243
   9.9411        235
   9.9597        249
   9.9783        258
   9.9968        222
  10.0154        271
  10.0340        236
  10.0526        237
  10.0711        253
  10.0897        223
  10.1083        237
  10.1269        214
  10.1454        237
  10.1640        254
  10.1826        262
  10.2012        249
  10.2197        242
  10.2383        211
  10.2569        231
  10.2755        231
  10.2940        249
  10.3126        253
  10.3312        259
  10.3498        280
  10.3683        230
  10.3869        255
  10.4055        247
  10.4241        262
  10.4427        254
  10.4612        269
  10.4798        228
  10.4984        235
  10.5170        232
  10.5355        277
  10.5541        221
  10.5727        266
  10.5913        262
  10.6098        245
  10.6284        244
  10.6470        230
  10.6656        255
  10.6841        236
  10.7027        241
  10.7213        212
  10.7399        230
  10.7584        247
  10.7770        276
  10.7956        215
  10.8142        243
  10.8327        252
  10.8513        236
  10.8699        266
  10.8885        241
  10.9070        246
  10.9256        236
  10.9442        222
  10.9628        235
  10.9813        257
  10.9999        251
  11.0185        228
  11.0371        234
  11.0556        228
  11.0742        228
  11.0928        245
  11.1114        234
  11.1299        235
  11.1485        252
  11.1671        238
  11.1857        244
  11.2043        248
  11.2228        222
  11.2414        234
  11.2600        233
  11.2786        228
  11.2971        239
  11.3157        233
  11.3343        258
  11.3529        243
  11.3714        225
  11.3900        247
  11.4086        256
  11.4272        245
  11.4457        254
  11.4643        247
  11.4829        231
  11.5015        257
  11.5200        278
  11.5386        251
  11.5572        229
  11.5758        238
  11.5943        235
  11.6129        267
  11.6315        251
  11.6501        223
  11.6686        227
  11.6872        253
  11.7058        234
  11.7244        233
  11.7429        226
  11.7615        226
  11.7801        261
  11.7987        264
  11.8172        234
  11.8358        234
  11.8544        266
  11.8730        255
  11.8915        235
  11.9101        241
  11.9287        222
  11.9473        239
  11.9659        267
  11.9844        227
  12.0030        224
  12.0216        213
  12.0402        237
  12.0587        238
  12.0773        225
  12.0959        243
  12.1145        206
  12.1330        228
  12.1516        232
  12.1702        217
  12.1888        250
  12.2073        233
  12.2259        207
  12.2445        261
  12.2631        235
  12.2816        225
  12.3002        205
  12.3188        219
  12.3374        236
  12.3559        225
  12.3745        204
  12.3931        244
  12.4117        214
  12.4302        211
  12.4488        188
  12.4674        202
  12.4860        218
  12.5045        212
  12.5231        206
  12.5417        246
  12.5603        208
  12.5788        224
  12.5974        201
  12.6160        217
  12.6346        202
  12.6531        198
  12.6717        225
  12.6903        206
  12.7089        211
  12.7274        197
  12.7460        218
  12.7646        221
  12.7832        207
  12.8018        201
  12.8203        212
  12.8389        220
  12.8575        231
  12.8761        230
  12.8946        211
  12.9132        238
  12.9318        196
  12.9504        208
  12.9689        218
  12.9875        214
  13.0061        196
  13.0247        208
  13.0432        216
  13.0618        212
  13.0804        180
  13.0990        202
  13.1175        202
  13.1361        225
  13.1547        201
  13.1733        209
  13.1918        224
  13.2104        216
  13.2290        190
  13.2476        203
  13.2661        214
  13.2847        196
  13.3033        221
  13.3219        200
  13.3404        194
  13.3590        201
  13.3776        203
  13.3962        210
  13.4147        191
  13.4333        211
  13.4519        173
  13.4705        198
  13.4890        214
  13.5076        197
  13.5262        203
  13.5448        192
  13.5634        211
  13.5819        203
  13.6005        217
  13.6191        222
  13.6377        180
  13.6562        212
  13.6748        197
  13.6934        177
  13.7120        196
  13.7305        172
  13.7491        212
  13.7677        172
  13.7863        205
  13.8048        176
  13.8234        174
  13.8420        188
  13.8606        176
  13.8791        201
  13.8977        192
  13.9163        188
  13.9349        178
  13.9534        172
  13.9720        169
  13.9906        186
  14.0092        184
  14.0277        183
  14.0463        175
  14.0649        172
  14.0835        200
  14.1020        178
  14.1206        168
  14.1392        186
  14.1578        175
  14.1763        153
  14.1949        184
  14.2135        189
  14.2321        192
  14.2506        178
  14.2692        171
  14.2878        180
  14.3064        203
  14.3250        195
  14.3435        170
  14.3621        158
  14.3807        168
  14.3993        176
  14.4178        184
  14.4364        153
  14.4550        161
  14.4736        183
  14.4921        158
  14.5107        190
  14.5293        167
  14.5479        183
  14.5664        173
  14.5850        182
  14.6036        175
  14.6222        176
  14.6407        189
  14.6593        180
  14.6779        197
  14.6965        196
  14.7150        174
  14.7336        158
  14.7522        182
  14.7708        177
  14.7893        188
  14.8079        144
  14.8265        150
  14.8451        185
  14.8636        183
  14.8822        182
  14.9008        181
  14.9194        191
  14.9379        181
  14.9565        161
  14.9751        182
  14.9937        179
  15.0122        155
  15.0308        180
  15.0494        154
  15.0680        181
  15.0866        173
  15.1051        169
  15.1237        180
  15.1423        161
  15.1609        171
  15.1794        183
  15.1980        164
  15.2166        149
  15.2352        150
  15.2537        178
  15.2723        170
  15.2909        150
  15.3095        159
  15.3280        198
  15.3466        180
  15.3652        175
  15.3838        177
  15.4023        162
  15.4209        160
  15.4395        156
  15.4581        184
  15.4766        155
  15.4952        179
  15.5138        162
  15.5324        163
  15.5509        161
  15.5695        159
  15.5881        150
  15.6067        167
  15.6252        155
  15.6438        162
  15.6624        179
  15.6810        176
  15.6995        172
  15.7181        157
  15.7367        160
  15.7553        157
  15.7738        171
  15.7924        164
  15.8110        145
  15.8296        177
  15.8482        159
  15.8667        161
  15.8853        176
  15.9039        155
  15.9225        134
  15.9410        182
  15.9596        187
  15.9782        176
  15.9968        143
  16.0153        173
  16.0339        176
  16.0525        156
  16.0711        148
  16.0896        189
  16.1082        142
  16.1268        153
  16.1454        166
  16.1639        162
  16.1825        167
  16.2011        158
  16.2197        152
  16.2382        163
  16.2568        148
  16.2754        171
  16.2940        184
  16.3125        164
  16.3311        190
  16.3497        190
  16.3683        174
  16.3868        163
  16.4054        169
  16.4240        168
  16.4426        174
  16.4611        152
  16.4797        173
  16.4983        167
  16.5169        154
  16.5354        162
  16.5540        154
  16.5726        167
  16.5912        173
  16.6097        143
  16.6283        167
  16.6469        168
  16.6655        168
  16.6841        174
  16.7026        171
  16.7212        169
  16.7398        170
  16.7584        156
  16.7769        154
  16.7955        180
  16.8141        145
  16.8327        158
  16.8512        179
  16.8698        152
  16.8884        161
  16.9070        169
  16.9255        173
  16.9441        169
  16.9627        137
  16.9813        160
  16.9998        165
  17.0184        171
  17.0370        170
  17.0556        146
  17.0741        149
  17.0927        160
  17.1113        180
  17.1299        151
  17.1484        146
  17.1670        163
  17.1856        166
  17.2042        173
  17.2227        170
  17.2413        172
  17.2599        142
  17.2785        173
  17.2970        163
  17.3156        147
  17.3342        177
  17.3528        144
  17.3713        158
  17.3899        139
  17.4085        148
  17.4271        174
  17.4457        151
  17.4642        141
  17.4828        174
  17.5014        156
  17.5200        164
  17.5385        154
  17.5571        158
  17.5757        163
  17.5943        191
  17.6128        146
  17.6314        148
  17.6500        158
  17.6686        164
  17.6871        152
  17.7057        157
  17.7243        171
  17.7429        182
  17.7614        166
  17.7800        149
  17.7986        145
  17.8172        166
  17.8357        189
  17.8543        181
  17.8729        162
  17.8915        166
  17.9100        161
  17.9286        172
  17.9472        173
  17.9658        165
  17.9843        152
  18.0029        176
  18.0215        176
  18.0401        147
  18.0586        178
  18.0772        162
  18.0958        193
  18.1144        164
  18.1329        153
  18.1515        154
  18.1701        179
  18.1887        140
  18.2073        165
  18.2258        170
  18.2444        162
  18.2630        172
  18.2816        156
  18.3001        146
  18.3187        177
  18.3373        161
  18.3559        172
  18.3744        186
  18.3930        166
  18.4116        160
  18.4302        156
  18.4487        172
  18.4673        151
  18.4859        162
  18.5045        152
  18.5230        164
  18.5416        164
  18.5602        184
  18.5788        168
  18.5973        165
  18.6159        179
  18.6345        157
  18.6531        140
  18.6716        178
  18.6902        183
  18.7088        187
  18.7274        160
  18.7459        175
  18.7645        169
  18.7831        180
  18.8017        154
  18.8202        154
  18.8388        169
  18.8574        159
  18.8760        150
  18.8945        157
  18.9131        151
  18.9317        150
  18.9503        162
  18.9689        172
  18.9874        168
  19.0060        175
  19.0246        154
  19.0432        149
  19.0617        160
  19.0803        169
  19.0989        183
  19.1175        173
  19.1360        171
  19.1546        185
  19.1732        172
  19.1918        174
  19.2103        172
  19.2289        172
  19.2475        171
  19.2661        168
  19.2846        162
  19.3032        176
  19.3218        180
  19.3404        172
  19.3589        160
  19.3775        158
  19.3961        168
  19.4147        162
  19.4332        150
  19.4518        184
  19.4704        186
  19.4890        193
  19.5075        186
  19.5261        162
  19.5447        180
  19.5633        156
  19.5818        160
  19.6004        155
  19.6190        189
  19.6376        174
  19.6561        170
  19.6747        188
  19.6933        186
  19.7119        198
  19.7305        187
  19.7490        171
  19.7676        161
  19.7862        173
  19.8048        197
  19.8233        175
  19.8419        152
  19.8605        160
  19.8791        192
  19.8976        192
  19.9162        178
  19.9348        168
  19.9534        161
  19.9719        184
  19.9905        185
  20.0091        170
  20.0277        180
  20.0462        190
  20.0648        169
  20.0834        185
  20.1020        183
  20.1205        184
  20.1391        187
  20.1577        200
  20.1763        176
  20.1948        189
  20.2134        187
  20.2320        182
  20.2506        193
  20.2691        186
  20.2877        212
  20.3063        199
  20.3249        160
  20.3434        180
  20.3620        175
  20.3806        210
  20.3992        187
  20.4177        178
  20.4363        180
  20.4549        185
  20.4735        170
  20.4921        196
  20.5106        167
  20.5292        176
  20.5478        168
  20.5664        190
  20.5849        193
  20.6035        178
  20.6221        190
  20.6407        185
  20.6592        196
  20.6778        165
  20.6964        172
  20.7150        180
  20.7335        201
  20.7521        188
  20.7707        194
  20.7893        212
  20.8078        194
  20.8264        187
  20.8450        177
  20.8636        192
  20.8821        192
  20.9007        203
  20.9193        207
  20.9379        196
  20.9564        198
  20.9750        197
  20.9936        172
  21.0122        217
  21.0307        193
  21.0493        199
  21.0679        190
  21.0865        190
  21.1050        216
  21.1236        212
  21.1422        247
  21.1608        259
  21.1793        233
  21.1979        295
  21.2165        320
  21.2351        331
  21.2537        319
  21.2722        306
  21.2908        331
  21.3094        332
  21.3280        373
  21.3465        494
  21.3651        520
  21.3837        431
  21.4023        420
  21.4208        373
  21.4394        323
  21.4580        218
  21.4766        222
  21.4951        193
  21.5137        213
  21.5323        193
  21.5509        187
  21.5694        191
  21.5880        228
  21.6066        208
  21.6252        193
  21.6437        205
  21.6623        199
  21.6809        213
  21.6995        208
  21.7180        202
  21.7366        205
  21.7552        203
  21.7738        203
  21.7923        197
  21.8109        207
  21.8295        204
  21.8481        212
  21.8666        191
  21.8852        214
  21.9038        200
  21.9224        208
  21.9409        204
  21.9595        186
  21.9781        190
  21.9967        184
  22.0152        191
  22.0338        186
  22.0524        219
  22.0710        183
  22.0896        182
  22.1081        223
  22.1267        196
  22.1453        209
  22.1639        182
  22.1824        202
  22.2010        172
  22.2196        186
  22.2382        193
  22.2567        178
  22.2753        197
  22.2939        171
  22.3125        193
  22.3310        230
  22.3496        207
  22.3682        209
  22.3868        178
  22.4053        219
  22.4239        211
  22.4425        217
  22.4611        197
  22.4796        180
  22.4982        194
  22.5168        190
  22.5354        187
  22.5539        193
  22.5725        199
  22.5911        199
  22.6097        199
  22.6282        210
  22.6468        213
  22.6654        207
  22.6840        210
  22.7025        221
  22.7211        212
  22.7397        214
  22.7583        209
  22.7768        189
  22.7954        197
  22.8140        209
  22.8326        195
  22.8512        205
  22.8697        201
  22.8883        177
  22.9069        203
  22.9255        183
  22.9440        198
  22.9626        235
  22.9812        207
  22.9998        201
  23.0183        213
  23.0369        206
  23.0555        192
  23.0741        216
  23.0926        195
  23.1112        211
  23.1298        231
  23.1484        197
  23.1669        214
  23.1855        184
  23.2041        195
  23.2227        208
  23.2412        209
  23.2598        232
  23.2784        221
  23.2970        199
  23.3155        202
  23.3341        197
  23.3527        206
  23.3713        197
  23.3898        207
  23.4084        214
  23.4270        198
  23.4456        197
  23.4641        228
  23.4827        187
  23.5013        184
  23.5199        240
  23.5384        209
  23.5570        203
  23.5756        227
  23.5942        217
  23.6128        202
  23.6313        193
  23.6499        208
  23.6685        186
  23.6871        211
  23.7056        215
  23.7242        227
  23.7428        231
  23.7614        212
  23.7799        183
  23.7985        207
  23.8171        191
  23.8357        215
  23.8542        188
  23.8728        195
  23.8914        191
  23.9100        208
  23.9285        196
  23.9471        219
  23.9657        198
  23.9843        200
  24.0028        222
  24.0214        176
  24.0400        176
  24.0586        185
  24.0771        207
  24.0957        157
  24.1143        183
  24.1329        196
  24.1514        202
  24.1700        186
  24.1886        221
  24.2072        220
  24.2257        196
  24.2443        236
  24.2629        247
  24.2815        218
  24.3000        233
  24.3186        251
  24.3372        222
  24.3558        195
  24.3744        227
  24.3929        200
  24.4115        206
  24.4301        234
  24.4487        228
  24.4672        226
  24.4858        172
  24.5044        218
  24.5230        188
  24.5415        198
  24.5601        209
  24.5787        188
  24.5973        238
  24.6158        170
  24.6344        184
  24.6530        186
  24.6716        196
  24.6901        189
  24.7087        210
  24.7273        196
  24.7459        240
  24.7644        216
  24.7830        217
  24.8016        196
  24.8202        193
  24.8387        207
  24.8573        177
  24.8759        198
  24.8945        194
  24.9130        218
  24.9316        189
  24.9502        207
  24.9688        194
  24.9873        210
  25.0059        191
  25.0245        215
  25.0431        203
  25.0616        201
  25.0802        192
  25.0988        211
  25.1174        228
  25.1360        192
  25.1545        203
  25.1731        190
  25.1917        200
  25.2103        191
  25.2288        189
  25.2474        187
  25.2660        217
  25.2846        206
  25.3031        183
  25.3217        196
  25.3403        203
  25.3589        193
  25.3774        200
  25.3960        195
  25.4146        190
  25.4332        197
  25.4517        217
  25.4703        183
  25.4889        207
  25.5075        193
  25.5260        188
  25.5446        190
  25.5632        229
  25.5818        203
  25.6003        195
  25.6189        209
  25.6375        212
  25.6561        207
  25.6746        207
  25.6932        181
  25.7118        185
  25.7304        218
  25.7489        191
  25.7675        186
  25.7861        220
  25.8047        190
  25.8232        174
  25.8418        199
  25.8604        191
  25.8790        199
  25.8976        168
  25.9161        210
  25.9347        204
  25.9533        193
  25.9719        180
  25.9904        174
  26.0090        200
  26.0276        199
  26.0462        205
  26.0647        174
  26.0833        177
  26.1019        191
  26.1205        215
  26.1390        215
  26.1576        201
  26.1762        196
  26.1948        201
  26.2133        196
  26.2319        189
  26.2505        177
  26.2691        183
  26.2876        160
  26.3062        221
  26.3248        172
  26.3434        175
  26.3619        187
  26.3805        183
  26.3991        178
  26.4177        194
  26.4362        164
  26.4548        173
  26.4734        176
  26.4920        198
  26.5105        186
  26.5291        203
  26.5477        181
  26.5663        173
  26.5848        188
  26.6034        179
  26.6220        190
  26.6406        187
  26.6591        167
  26.6777        192
  26.6963        206
  26.7149        181
  26.7335        181
  26.7520        184
  26.7706        190
  26.7892        188
  26.8078        175
  26.8263        173
  26.8449        186
  26.8635        193
  26.8821        172
  26.9006        197
  26.9192        192
  26.9378        190
  26.9564        214
  26.9749        182
  26.9935        189
  27.0121        189
  27.0307        191
  27.0492        211
  27.0678        178
  27.0864        175
  27.1050        187
  27.1235        216
  27.1421        220
  27.1607        213
  27.1793        250
  27.1978        249
  27.2164        249
  27.2350        239
  27.2536        201
  27.2721        239
  27.2907        199
  27.3093        185
  27.3279        226
  27.3464        197
  27.3650        202
  27.3836        222
  27.4022        197
  27.4207        190
  27.4393        186
  27.4579        168
  27.4765        190
  27.4951        169
  27.5136        178
  27.5322        192
  27.5508        183
  27.5694        173
  27.5879        187
  27.6065        184
  27.6251        175
  27.6437        211
  27.6622        173
  27.6808        185
  27.6994        181
  27.7180        174
  27.7365        198
  27.7551        167
  27.7737        152
  27.7923        158
  27.8108        177
  27.8294        171
  27.8480        183
  27.8666        194
  27.8851        155
  27.9037        176
  27.9223        184
  27.9409        166
  27.9594        170
  27.9780        187
  27.9966        154
  28.0152        174
  28.0337        181
  28.0523        164
  28.0709        164
  28.0895        174
  28.1080        177
  28.1266        162
  28.1452        175
  28.1638        200
  28.1823        173
  28.2009        150
  28.2195        202
  28.2381        166
  28.2567        185
  28.2752        170
  28.2938        188
  28.3124        161
  28.3310        167
  28.3495        175
  28.3681        176
  28.3867        151
  28.4053        179
  28.4238        186
  28.4424        170
  28.4610        154
  28.4796        170
  28.4981        190
  28.5167        180
  28.5353        158
  28.5539        170
  28.5724        184
  28.5910        178
  28.6096        179
  28.6282        163
  28.6467        161
  28.6653        162
  28.6839        192
  28.7025        183
  28.7210        184
  28.7396        192
  28.7582        161
  28.7768        160
  28.7953        178
  28.8139        162
  28.8325        168
  28.8511        166
  28.8696        140
  28.8882        173
  28.9068        165
  28.9254        169
  28.9439        196
  28.9625        183
  28.9811        187
  28.9997        176
  29.0183        145
  29.0368        178
  29.0554        166
  29.0740        151
  29.0926        175
  29.1111        165
  29.1297        140
  29.1483        195
  29.1669        164
  29.1854        160
  29.2040        148
  29.2226        147
  29.2412        183
  29.2597        157
  29.2783        137
  29.2969        147
  29.3155        160
  29.3340        157
  29.3526        160
  29.3712        172
  29.3898        151
  29.4083        154
  29.4269        138
  29.4455        164
  29.4641        155
  29.4826        175
  29.5012        177
  29.5198        143
  29.5384        161
  29.5569        171
  29.5755        143
  29.5941        151
  29.6127        156
  29.6312        158
  29.6498        158
  29.6684        172
  29.6870        157
  29.7055        185
  29.7241        143
  29.7427        152
  29.7613        178
  29.7799        143
  29.7984        153
  29.8170        182
  29.8356        144
  29.8542        148
  29.8727        175
  29.8913        184
  29.9099        155
  29.9285        155
  29.9470        161
  29.9656        150
  29.9842        192
  30.0028        164
  30.0213        152
  30.0399        169
  30.0585        164
  30.0771        179
  30.0956        146
  30.1142        176
  30.1328        171
  30.1514        187
  30.1699        155
  30.1885        167
  30.2071        154
  30.2257        160
  30.2442        174
  30.2628        187
  30.2814        167
  30.3000        155
  30.3185        211
  30.3371        192
  30.3557        251
  30.3743        348
  30.3928        360
  30.4114        256
  30.4300        250
  30.4486        231
  30.4671        275
  30.4857        237
  30.5043        183
  30.5229        166
  30.5415        157
  30.5600        174
  30.5786        162
  30.5972        144
  30.6158        166
  30.6343        159
  30.6529        150
  30.6715        140
  30.6901        160
  30.7086        142
  30.7272        157
  30.7458        149
  30.7644        156
  30.7829        155
  30.8015        155
  30.8201        162
  30.8387        178
  30.8572        139
  30.8758        152
  30.8944        140
  30.9130        143
  30.9315        154
  30.9501        129
  30.9687        151
  30.9873        145
  31.0058        146
  31.0244        149
  31.0430        134
  31.0616        159
  31.0801        144
  31.0987        120
  31.1173        134
  31.1359        147
  31.1544        137
  31.1730        154
  31.1916        144
  31.2102        134
  31.2287        155
  31.2473        123
  31.2659        158
  31.2845        126
  31.3030        158
  31.3216        141
  31.3402        162
  31.3588        142
  31.3774        144
  31.3959        159
  31.4145        146
  31.4331        135
  31.4517        155
  31.4702        130
  31.4888        133
  31.5074        143
  31.5260        145
  31.5445        118
  31.5631        139
  31.5817        136
  31.6003        144
  31.6188        139
  31.6374        140
  31.6560        136
  31.6746        133
  31.6931        148
  31.7117        114
  31.7303        120
  31.7489        133
  31.7674        136
  31.7860        161
  31.8046        125
  31.8232        131
  31.8417        147
  31.8603        125
  31.8789        146
  31.8975        128
  31.9160        142
  31.9346        127
  31.9532        148
  31.9718        154
  31.9903        150
  32.0089        129
  32.0275        150
  32.0461        121
  32.0646        139
  32.0832        110
  32.1018        111
  32.1204        134
  32.1390        126
  32.1575        146
  32.1761        153
  32.1947        145
  32.2133        123
  32.2318        116
  32.2504        131
  32.2690        138
  32.2876        148
  32.3061        139
  32.3247        134
  32.3433        139
  32.3619        142
  32.3804        146
  32.3990        138
  32.4176        146
  32.4362        134
  32.4547        145
  32.4733        150
  32.4919        139
  32.5105        151
  32.5290        121
  32.5476        147
  32.5662        135
  32.5848        139
  32.6033        134
  32.6219        121
  32.6405        113
  32.6591        144
  32.6776        134
  32.6962        147
  32.7148        151
  32.7334        140
  32.7519        131
  32.7705        119
  32.7891        128
  32.8077        128
  32.8262        108
  32.8448        128
  32.8634        123
  32.8820        121
  32.9006        127
  32.9191        132
  32.9377        111
  32.9563        121
  32.9749        108
  32.9934        117
  33.0120        111
  33.0306        127
  33.0492        138
  33.0677        127
  33.0863        110
  33.1049        119
  33.1235        123
  33.1420        120
  33.1606        125
  33.1792        128
  33.1978        134
  33.2163        126
  33.2349        146
  33.2535        135
  33.2721        119
  33.2906        127
  33.3092        133
  33.3278        123
  33.3464        117
  33.3649        127
  33.3835        130
  33.4021        131
  33.4207        114
  33.4392        120
  33.4578        110
  33.4764        143
  33.4950        116
  33.5135        138
  33.5321        141
  33.5507        128
  33.5693        122
  33.5878        108
  33.6064        122
  33.6250        113
  33.6436        110
  33.6622        115
  33.6807        108
  33.6993        101
  33.7179         96
  33.7365        114
  33.7550        120
  33.7736        120
  33.7922        146
  33.8108        122
  33.8293        111
  33.8479        122
  33.8665        112
  33.8851        123
  33.9036        118
  33.9222        106
  33.9408        100
  33.9594        128
  33.9779        124
  33.9965        121
  34.0151        128
  34.0337        104
  34.0522        139
  34.0708        135
  34.0894        141
  34.1080        133
  34.1265         98
  34.1451        107
  34.1637        100
  34.1823        119
  34.2008        126
  34.2194        120
  34.2380        114
  34.2566        123
  34.2751        109
  34.2937        112
  34.3123        116
  34.3309        105
  34.3494        117
  34.3680        115
  34.3866        116
  34.4052        119
  34.4238        106
  34.4423        106
  34.4609        106
  34.4795        115
  34.4981        107
  34.5166        110
  34.5352        113
  34.5538        129
  34.5724        120
  34.5909        121
  34.6095        121
  34.6281        142
  34.6467        148
  34.6652        129
  34.6838        125
  34.7024        133
  34.7210        138
  34.7395        161
  34.7581        134
  34.7767        149
  34.7953        150
  34.8138        159
  34.8324        134
  34.8510        144
  34.8696        145
  34.8881        133
  34.9067        142
  34.9253        111
  34.9439        135
  34.9624        121
  34.9810        110
  34.9996        117
  35.0182        114
  35.0367        111
  35.0553        109
  35.0739        102
  35.0925         98
  35.1110        102
  35.1296        112
  35.1482         89
  35.1668        119
  35.1854        105
  35.2039        117
  35.2225         94
  35.2411        113
  35.2597        116
  35.2782        117
  35.2968        108
  35.3154         94
  35.3340        108
  35.3525         96
  35.3711        111
  35.3897         99
  35.4083        107
  35.4268         95
  35.4454         97
  35.4640        102
  35.4826         88
  35.5011         82
  35.5197         88
  35.5383        102
  35.5569         94
  35.5754         93
  35.5940        110
  35.6126         96
  35.6312         99
  35.6497         95
  35.6683        106
  35.6869        103
  35.7055        117
  35.7240         95
  35.7426         91
  35.7612        101
  35.7798        108
  35.7983         96
  35.8169         97
  35.8355         93
  35.8541        117
  35.8726         91
  35.8912        104
  35.9098         83
  35.9284         99
  35.9469        117
  35.9655         93
  35.9841         88
  36.0027         91
  36.0213        107
  36.0398        101
  36.0584        102
  36.0770        102
  36.0956         83
  36.1141         93
  36.1327        101
  36.1513         82
  36.1699         83
  36.1884        113
  36.2070         85
  36.2256        111
  36.2442        111
  36.2627         87
  36.2813         93
  36.2999         98
  36.3185         90
  36.3370        100
  36.3556         95
  36.3742         95
  36.3928         98
  36.4113         91
  36.4299         95
  36.4485         95
  36.4671         92
  36.4856         98
  36.5042         86
  36.5228         82
  36.5414        100
  36.5599         98
  36.5785         89
  36.5971         81
  36.6157         99
  36.6342        104
  36.6528         79
  36.6714         86
  36.6900        110
  36.7085         88
  36.7271         73
  36.7457         89
  36.7643         96
  36.7829         90
  36.8014         99
  36.8200         87
  36.8386        111
  36.8572        106
  36.8757         93
  36.8943         89
  36.9129         72
  36.9315        114
  36.9500         93
  36.9686         95
  36.9872         89
  37.0058         92
  37.0243         98
  37.0429         95
  37.0615         98
  37.0801         85
  37.0986         79
  37.1172        100
  37.1358         96
  37.1544         83
  37.1729         98
  37.1915         87
  37.2101        111
  37.2287        106
  37.2472         87
  37.2658         78
  37.2844        111
  37.3030         99
  37.3215         99
  37.3401         98
  37.3587         99
  37.3773        125
  37.3958        118
  37.4144        134
  37.4330        151
  37.4516        135
  37.4701        162
  37.4887        104
  37.5073        112
  37.5259        111
  37.5445        134
  37.5630        130
  37.5816        100
  37.6002         85
  37.6188         94
  37.6373         90
  37.6559         99
  37.6745         90
  37.6931         84
  37.7116        101
  37.7302         68
  37.7488         77
  37.7674         72
  37.7859         76
  37.8045         77
  37.8231         94
  37.8417         71
  37.8602         80
  37.8788         98
  37.8974        101
  37.9160         73
  37.9345         77
  37.9531         89
  37.9717         90
  37.9903         81
  38.0088         87
  38.0274         88
  38.0460         83
  38.0646         78
  38.0831         82
  38.1017         87
  38.1203         97
  38.1389         86
  38.1574        110
  38.1760         85
  38.1946         99
  38.2132         76
  38.2317         73
  38.2503         84
  38.2689         86
  38.2875         88
  38.3061         84
  38.3246         81
  38.3432         71
  38.3618         89
  38.3804        101
  38.3989         69
  38.4175         94
  38.4361         80
  38.4547         82
  38.4732         77
  38.4918         67
  38.5104         81
  38.5290         96
  38.5475         87
  38.5661         86
  38.5847         99
  38.6033         84
  38.6218         94
  38.6404         96
  38.6590         84
  38.6776         86
  38.6961         82
  38.7147         77
  38.7333         73
  38.7519         87
  38.7704         91
  38.7890        101
  38.8076         96
  38.8262         83
  38.8447        101
  38.8633         96
  38.8819        107
  38.9005         90
  38.9190         72
  38.9376         89
  38.9562         80
  38.9748        100
  38.9933         89
  39.0119         85
  39.0305         86
  39.0491         83
  39.0677         91
  39.0862         79
  39.1048        107
  39.1234         89
  39.1420         75
  39.1605         87
  39.1791         83
  39.1977         72
  39.2163         78
  39.2348         73
  39.2534         78
  39.2720         90
  39.2906         79
  39.3091         90
  39.3277         82
  39.3463         97
  39.3649         89
  39.3834         83
  39.4020         87
  39.4206         74
  39.4392        106
  39.4577         78
  39.4763         91
  39.4949         80
  39.5135         74
  39.5320         85
  39.5506         78
  39.5692         64
  39.5878         78
  39.6063         76
  39.6249         72
  39.6435         85
  39.6621         78
  39.6806         86
  39.6992         85
  39.7178         74
  39.7364         75
  39.7549         78
  39.7735         83
  39.7921         78
  39.8107         88
  39.8293         82
  39.8478         80
  39.8664         84
  39.8850         74
  39.9036         63
  39.9221         67
  39.9407         75
  39.9593         92
  39.9779         78
  39.9964         73
  40.0150         67
  40.0336         79
  40.0522         77
  40.0707         63
  40.0893         80
  40.1079         77
  40.1265         79
  40.1450         65
  40.1636         70
  40.1822         68
  40.2008         86
  40.2193         78
  40.2379         81
  40.2565         71
  40.2751         64
  40.2936         84
  40.3122         75
  40.3308         70
  40.3494         78
  40.3679         82
  40.3865         78
  40.4051         79
  40.4237         72
  40.4422         80
  40.4608         85
  40.4794         84
  40.4980         90
  40.5165         73
  40.5351         78
  40.5537         62
  40.5723         75
  40.5908         70
  40.6094         91
  40.6280         68
  40.6466         85
  40.6652         73
  40.6837         71
  40.7023         66
  40.7209         74
  40.7395         72
  40.7580         84
  40.7766         84
  40.7952         68
  40.8138         79
  40.8323         81
  40.8509         74
  40.8695         79
  40.8881         81
  40.9066         77
  40.9252         70
  40.9438         91
  40.9624         88
  40.9809         84
  40.9995         77
  41.0181         82
  41.0367         59
  41.0552         88
  41.0738         65
  41.0924         76
  41.1110         82
  41.1295         76
  41.1481         64
  41.1667         81
  41.1853         83
  41.2038         81
  41.2224         87
  41.2410         73
  41.2596         85
  41.2781         82
  41.2967         79
  41.3153         64
  41.3339         91
  41.3524         69
  41.3710         88
  41.3896         62
  41.4082         75
  41.4268         66
  41.4453         78
  41.4639         78
  41.4825         75
  41.5011         70
  41.5196         82
  41.5382         83
  41.5568         79
  41.5754         72
  41.5939         74
  41.6125         74
  41.6311         81
  41.6497         69
  41.6682         83
  41.6868         71
  41.7054         73
  41.7240         79
  41.7425         66
  41.7611         75
  41.7797         80
  41.7983         73
  41.8168         76
  41.8354         72
  41.8540         77
  41.8726         66
  41.8911         81
  41.9097         83
  41.9283         75
  41.9469         74
  41.9654         83
  41.9840         78
  42.0026         82
  42.0212         75
  42.0397         76
  42.0583         62
  42.0769         72
  42.0955         85
  42.1140         69
  42.1326         91
  42.1512         76
  42.1698         83
  42.1884         61
  42.2069         66
  42.2255         75
  42.2441         78
  42.2627         69
  42.2812         86
  42.2998         78
  42.3184         71
  42.3370         70
  42.3555         72
  42.3741         69
  42.3927         81
  42.4113         51
  42.4298         85
  42.4484         76
  42.4670         69
  42.4856         70
  42.5041         63
  42.5227         77
  42.5413         91
  42.5599         71
  42.5784         78
  42.5970         62
  42.6156         79
  42.6342         62
  42.6527         73
  42.6713         96
  42.6899         67
  42.7085         75
  42.7270         67
  42.7456         90
  42.7642         86
  42.7828         74
  42.8013         78
  42.8199         83
  42.8385         77
  42.8571         90
  42.8756         72
  42.8942         89
  42.9128         83
  42.9314         79
  42.9500         63
  42.9685         71
  42.9871         77
  43.0057         68
  43.0243         85
  43.0428         73
  43.0614         73
  43.0800         81
  43.0986         78
  43.1171         76
  43.1357         79
  43.1543         85
  43.1729         68
  43.1914         78
  43.2100         95
  43.2286         95
  43.2472        107
  43.2657         97
  43.2843         89
  43.3029         90
  43.3215        105
  43.3400         93
  43.3586         91
  43.3772         73
  43.3958         83
  43.4143         93
  43.4329         75
  43.4515         99
  43.4701        110
  43.4886        114
  43.5072        135
  43.5258        123
  43.5444         84
  43.5629         94
  43.5815         91
  43.6001         93
  43.6187        115
  43.6372         97
  43.6558         86
  43.6744         70
  43.6930         69
  43.7116         77
  43.7301         87
  43.7487         76
  43.7673         70
  43.7859         76
  43.8044         73
  43.8230         82
  43.8416         69
  43.8602         66
  43.8787         74
  43.8973         73
  43.9159         61
  43.9345         70
  43.9530         70
  43.9716         65
  43.9902         82
  44.0088         77
  44.0273         70
  44.0459         80
  44.0645         66
  44.0831         71
  44.1016         71
  44.1202         84
  44.1388         65
  44.1574         71
  44.1759         76
  44.1945         71
  44.2131         82
  44.2317         83
  44.2502         65
  44.2688         85
  44.2874         74
  44.3060         74
  44.3245         95
  44.3431         86
  44.3617         73
  44.3803         84
  44.3988         76
  44.4174         93
  44.4360         77
  44.4546         72
  44.4732         58
  44.4917         71
  44.5103         56
  44.5289         85
  44.5475         64
  44.5660         81
  44.5846         73
  44.6032         93
  44.6218         89
  44.6403         76
  44.6589         73
  44.6775         88
  44.6961         88
  44.7146         75
  44.7332         67
  44.7518         52
  44.7704         65
  44.7889         77
  44.8075         80
  44.8261         73
  44.8447         82
  44.8632         70
  44.8818         72
  44.9004         73
  44.9190         77
  44.9375         91
  44.9561         85
  44.9747         64
  44.9933         74
  45.0118         75
  45.0304         66
  45.0490         74
  45.0676         58
  45.0861         60
  45.1047         68
  45.1233         74
  45.1419         69
  45.1604         80
  45.1790         61
  45.1976         70
  45.2162         76
  45.2347         61
  45.2533         74
  45.2719         78
  45.2905         71
  45.3091         63
  45.3276         76
  45.3462         76
  45.3648         75
  45.3834         67
  45.4019         74
  45.4205         66
  45.4391         79
  45.4577         66
  45.4762         73
  45.4948         58
  45.5134         59
  45.5320         74
  45.5505         60
  45.5691         76
  45.5877         78
  45.6063         62
  45.6248         76
  45.6434         60
  45.6620         63
  45.6806         59
  45.6991         72
  45.7177         61
  45.7363         68
  45.7549         73
  45.7734         61
  45.7920         74
  45.8106         77
  45.8292         63
  45.8477         69
  45.8663         65
  45.8849         70
  45.9035         62
  45.9220         64
  45.9406         63
  45.9592         74
  45.9778         59
  45.9963         68
  46.0149         59
  46.0335         88
  46.0521         71
  46.0707         66
  46.0892         66
  46.1078         71
  46.1264         58
  46.1450         65
  46.1635         55
  46.1821         74
  46.2007         65
  46.2193         57
  46.2378         56
  46.2564         69
  46.2750         61
  46.2936         61
  46.3121         68
  46.3307         68
  46.3493         71
  46.3679         64
  46.3864         73
  46.4050         62
  46.4236         74
  46.4422         66
  46.4607         70
  46.4793         55
  46.4979         61
  46.5165         60
  46.5350         74
  46.5536         74
  46.5722         79
  46.5908         60
  46.6093         61
  46.6279         74
  46.6465         58
  46.6651         56
  46.6836         68
  46.7022         54
  46.7208         51
  46.7394         64
  46.7579         87
  46.7765         66
  46.7951         52
  46.8137         77
  46.8323         72
  46.8508         55
  46.8694         73
  46.8880         54
  46.9066         62
  46.9251         64
  46.9437         60
  46.9623         87
  46.9809         68
  46.9994         52
  47.0180         57
  47.0366         65
  47.0552         73
  47.0737         65
  47.0923         57
  47.1109         65
  47.1295         60
  47.1480         62
  47.1666         78
  47.1852         61
  47.2038         82
  47.2223         69
  47.2409         59
  47.2595         62
  47.2781         62
  47.2966         66
  47.3152         55
  47.3338         85
  47.3524         55
  47.3709         66
  47.3895         52
  47.4081         58
  47.4267         69
  47.4452         60
  47.4638         66
  47.4824         58
  47.5010         69
  47.5195         64
  47.5381         66
  47.5567         61
  47.5753         65
  47.5939         69
  47.6124         68
  47.6310         79
  47.6496         59
  47.6682         61
  47.6867         57
  47.7053         75
  47.7239         51
  47.7425         56
  47.7610         64
  47.7796         69
  47.7982         59
  47.8168         57
  47.8353         66
  47.8539         64
  47.8725         51
  47.8911         75
  47.9096         66
  47.9282         57
  47.9468         56
  47.9654         70
  47.9839         56
  48.0025         62
  48.0211         57
  48.0397         68
  48.0582         62
  48.0768         58
  48.0954         57
  48.1140         47
  48.1325         54
  48.1511         61
  48.1697         65
  48.1883         67
  48.2068         62
  48.2254         61
  48.2440         75
  48.2626         65
  48.2811         68
  48.2997         59
  48.3183         59
  48.3369         60
  48.3555         64
  48.3740         59
  48.3926         65
  48.4112         64
  48.4298         74
  48.4483         52
  48.4669         74
  48.4855         66
  48.5041         71
  48.5226         60
  48.5412         77
  48.5598         59
  48.5784         58
  48.5969         58
  48.6155         58
  48.6341         63
  48.6527         53
  48.6712         65
  48.6898         57
  48.7084         71
  48.7270         69
  48.7455         81
  48.7641         63
  48.7827         78
  48.8013         70
  48.8198         81
  48.8384         64
  48.8570         56
  48.8756         65
  48.8941         61
  48.9127         87
  48.9313        109
  48.9499        107
  48.9684        110
  48.9870        107
  49.0056         89
  49.0242         88
  49.0427         87
  49.0613         76
  49.0799         94
  49.0985         96
  49.1171         84
  49.1356         80
  49.1542         63
  49.1728         62
  49.1914         69
  49.2099         70
  49.2285         51
  49.2471         72
  49.2657         52
  49.2842         61
  49.3028         54
  49.3214         63
  49.3400         61
  49.3585         74
  49.3771         55
  49.3957         68
  49.4143         62
  49.4328         70
  49.4514         71
  49.4700         65
  49.4886         53
  49.5071         68
  49.5257         65
  49.5443         61
  49.5629         51
  49.5814         63
  49.6000         55
  49.6186         82
  49.6372         63
  49.6557         68
  49.6743         62
  49.6929         52
  49.7115         66
  49.7300         59
  49.7486         80
  49.7672         60
  49.7858         57
  49.8043         49
  49.8229         65
  49.8415         72
  49.8601         66
  49.8786         70
  49.8972         77
  49.9158         60
  49.9344         52
  49.9530         74
  49.9715         65
  49.9901         71
  50.0087         65
  50.0273         73
  50.0458         55
  50.0644         51
  50.0830         65
  50.1016         57
  50.1201         63
  50.1387         71
  50.1573         63
  50.1759         66
  50.1944         64
  50.2130         48
  50.2316         61
  50.2502         74
  50.2687         62
  50.2873         77
  50.3059         63
  50.3245         65
  50.3430         65
  50.3616         60
  50.3802         64
  50.3988         73
  50.4173         64
  50.4359         70
  50.4545         59
  50.4731         69
  50.4916         57
  50.5102         65
  50.5288         65
  50.5474         69
  50.5659         61
  50.5845         41
  50.6031         55
  50.6217         60
  50.6402         48
  50.6588         67
  50.6774         59
  50.6960         64
  50.7146         58
  50.7331         72
  50.7517         49
  50.7703         70
  50.7889         59
  50.8074         57
  50.8260         70
  50.8446         52
  50.8632         62
  50.8817         49
  50.9003         80
  50.9189         51
  50.9375         57
  50.9560         55
  50.9746         67
  50.9932         75
  51.0118         48
  51.0303         46
  51.0489         65
  51.0675         65
  51.0861         49
  51.1046         53
  51.1232         50
  51.1418         66
  51.1604         57
  51.1789         69
  51.1975         63
  51.2161         57
  51.2347         60
  51.2532         54
  51.2718         72
  51.2904         62
  51.3090         62
  51.3275         58
  51.3461         63
  51.3647         68
  51.3833         67
  51.4018         68
  51.4204         58
  51.4390         73
  51.4576         65
  51.4762         67
  51.4947         61
  51.5133         48
  51.5319         63
  51.5505         68
  51.5690         65
  51.5876         68
  51.6062         68
  51.6248         63
  51.6433         53
  51.6619         56
  51.6805         61
  51.6991         70
  51.7176         69
  51.7362         67
  51.7548         56
  51.7734         48
  51.7919         80
  51.8105         66
  51.8291         78
  51.8477         68
  51.8662         67
  51.8848         68
  51.9034         60
  51.9220         57
  51.9405         66
  51.9591         62
  51.9777         67
  51.9963         65
  52.0148         80
  52.0334         53
  52.0520         58
  52.0706         59
  52.0891         57
  52.1077         64
  52.1263         58
  52.1449         61
  52.1634         59
  52.1820         52
  52.2006         54
  52.2192         52
  52.2378         42
  52.2563         58
  52.2749         54
  52.2935         56
  52.3121         57
  52.3306         60
  52.3492         62
  52.3678         65
  52.3864         67
  52.4049         66
  52.4235         59
  52.4421         60
  52.4607         55
  52.4792         57
  52.4978         56
  52.5164         67
  52.5350         63
  52.5535         57
  52.5721         49
  52.5907         54
  52.6093         65
  52.6278         67
  52.6464         60
  52.6650         49
  52.6836         57
  52.7021         69
  52.7207         50
  52.7393         67
  52.7579         60
  52.7764         65
  52.7950         59
  52.8136         58
  52.8322         60
  52.8507         61
  52.8693         55
  52.8879         55
  52.9065         61
  52.9250         56
  52.9436         66
  52.9622         58
  52.9808         58
  52.9994         81
  53.0179         72
  53.0365         77
  53.0551         61
  53.0737         68
  53.0922         54
  53.1108         59
  53.1294         64
  53.1480         55
  53.1665         68
  53.1851         68
  53.2037         44
  53.2223         50
  53.2408         55
  53.2594         57
  53.2780         58
  53.2966         52
  53.3151         58
  53.3337         55
  53.3523         69
  53.3709         61
  53.3894         66
  53.4080         64
  53.4266         42
  53.4452         65
  53.4637         75
  53.4823         55
  53.5009         62
  53.5195         38
  53.5380         60
  53.5566         70
  53.5752         65
  53.5938         48
  53.6123         61
  53.6309         65
  53.6495         64
  53.6681         55
  53.6866         59
  53.7052         57
  53.7238         64
  53.7424         56
  53.7610         56
  53.7795         61
  53.7981         57
  53.8167         58
  53.8353         49
  53.8538         57
  53.8724         47
  53.8910         60
  53.9096         51
  53.9281         61
  53.9467         64
  53.9653         68
  53.9839         82
  54.0024         77
  54.0210         71
  54.0396         74
  54.0582         64
  54.0767         69
  54.0953         78
  54.1139         61
  54.1325         67
  54.1510         70
  54.1696         74
  54.1882         75
  54.2068         66
  54.2253         62
  54.2439         71
  54.2625         49
  54.2811         64
  54.2996         45
  54.3182         66
  54.3368         60
  54.3554         57
  54.3739         55
  54.3925         58
  54.4111         48
  54.4297         63
  54.4482         49
  54.4668         49
  54.4854         56
  54.5040         59
  54.5225         64
  54.5411         52
  54.5597         49
  54.5783         57
  54.5969         55
  54.6154         55
  54.6340         70
  54.6526         51
  54.6712         62
  54.6897         63
  54.7083         51
  54.7269         56
  54.7455         50
  54.7640         57
  54.7826         50
  54.8012         46
  54.8198         65
  54.8383         53
  54.8569         56
  54.8755         60
  54.8941         49
  54.9126         66
  54.9312         59
  54.9498         53
  54.9684         50
  54.9869         48
  55.0055         47
  55.0241         60
  55.0427         67
  55.0612         52
  55.0798         60
  55.0984         47
  55.1170         37
  55.1355         63
  55.1541         58
  55.1727         68
  55.1913         60
  55.2098         45
  55.2284         54
  55.2470         45
  55.2656         65
  55.2841         62
  55.3027         51
  55.3213         54
  55.3399         69
  55.3585         68
  55.3770         67
  55.3956         53
  55.4142         64
  55.4328         56
  55.4513         55
  55.4699         61
  55.4885         62
  55.5071         55
  55.5256         50
  55.5442         70
  55.5628         53
  55.5814         47
  55.5999         57
  55.6185         52
  55.6371         44
  55.6557         58
  55.6742         52
  55.6928         58
  55.7114         68
  55.7300         62
  55.7485         55
  55.7671         40
  55.7857         62
  55.8043         59
  55.8228         52
  55.8414         67
  55.8600         54
  55.8786         58
  55.8971         52
  55.9157         59
  55.9343         67
  55.9529         66
  55.9714         56
  55.9900         50
  56.0086         59
  56.0272         64
  56.0457         62
  56.0643         57
  56.0829         49
  56.1015         58
  56.1201         64
  56.1386         65
  56.1572         66
  56.1758         67
  56.1944         64
  56.2129         58
  56.2315         57
  56.2501         60
  56.2687         70
  56.2872         75
  56.3058         60
  56.3244         59
  56.3430         65
  56.3615         59
  56.3801         71
  56.3987         56
  56.4173         66
  56.4358         68
  56.4544         65
  56.4730         67
  56.4916         49
  56.5101         60
  56.5287         61
  56.5473         62
  56.5659         51
  56.5844         53
  56.6030         59
  56.6216         50
  56.6402         66
  56.6587         53
  56.6773         61
  56.6959         67
  56.7145         57
  56.7330         46
  56.7516         65
  56.7702         58
  56.7888         71
  56.8073         56
  56.8259         72
  56.8445         63
  56.8631         48
  56.8817         55
  56.9002         51
  56.9188         44
  56.9374         52
  56.9560         63
  56.9745         44
  56.9931         57
  57.0117         63
  57.0303         58
  57.0488         61
  57.0674         50
  57.0860         56
  57.1046         56
  57.1231         45
  57.1417         66
  57.1603         50
  57.1789         51
  57.1974         73
  57.2160         53
  57.2346         56
  57.2532         51
  57.2717         64
  57.2903         61
  57.3089         63
  57.3275         53
  57.3460         61
  57.3646         62
  57.3832         59
  57.4018         65
  57.4203         45
  57.4389         59
  57.4575         55
  57.4761         57
  57.4946         46
  57.5132         47
  57.5318         54
  57.5504         57
  57.5689         47
  57.5875         50
  57.6061         63
  57.6247         46
  57.6433         50
  57.6618         66
  57.6804         69
  57.6990         61
  57.7176         66
  57.7361         70
  57.7547         44
  57.7733         68
  57.7919         61
  57.8104         62
  57.8290         48
  57.8476         55
  57.8662         48
  57.8847         64
  57.9033         73
  57.9219         55
  57.9405         59
  57.9590         60
  57.9776         53
  57.9962         62
  58.0148         52
  58.0333         56
  58.0519         42
  58.0705         51
  58.0891         59
  58.1076         51
  58.1262         60
  58.1448         51
  58.1634         63
  58.1819         56
  58.2005         55
  58.2191         60
  58.2377         48
  58.2562         66
  58.2748         49
  58.2934         64
  58.3120         49
  58.3305         55
  58.3491         56
  58.3677         66
  58.3863         62
  58.4049         63
  58.4234         53
  58.4420         66
  58.4606         61
  58.4792         49
  58.4977         62
  58.5163         51
  58.5349         46
  58.5535         58
  58.5720         60
  58.5906         36
  58.6092         40
  58.6278         59
  58.6463         63
  58.6649         69
  58.6835         52
  58.7021         45
  58.7206         53
  58.7392         51
  58.7578         47
  58.7764         35
  58.7949         51
  58.8135         59
  58.8321         55
  58.8507         57
  58.8692         55
  58.8878         55
  58.9064         59
  58.9250         60
  58.9435         38
  58.9621         47
  58.9807         60
  58.9993         46
  59.0178         48
  59.0364         61
  59.0550         60
  59.0736         56
  59.0921         57
  59.1107         54
  59.1293         64
  59.1479         57
  59.1664         58
  59.1850         60
  59.2036         56
  59.2222         63
  59.2408         62
  59.2593         67
  59.2779         58
  59.2965         59
  59.3151         58
  59.3336         67
  59.3522         66
  59.3708         51
  59.3894         39
  59.4079         63
  59.4265         54
  59.4451         42
  59.4637         52
  59.4822         63
  59.5008         62
  59.5194         36
  59.5380         58
  59.5565         55
  59.5751         53
  59.5937         64
  59.6123         58
  59.6308         51
  59.6494         53
  59.6680         50
  59.6866         50
  59.7051         62
  59.7237         56
  59.7423         50
  59.7609         62
  59.7794         49
  59.7980         53
  59.8166         53
  59.8352         46
  59.8537         54
  59.8723         59
  59.8909         54
  59.9095         51
  59.9280         51
  59.9466         54
  59.9652         60
  59.9838         48
  60.0024         54
