;,2THETA,
5.0000,137
5.0186,126
5.0372,128
5.0557,135
5.0743,129
5.0929,135
5.1115,148
5.1300,106
5.1486,139
5.1672,116
5.1858,119
5.2043,137
5.2229,135
5.2415,131
5.2601,119
5.2786,106
5.2972,141
5.3158,119
5.3344,144
5.3529,110
5.3715,110
5.3901,113
5.4087,109
5.4272,98
5.4458,120
5.4644,125
5.4830,124
5.5015,127
5.5201,99
5.5387,107
5.5573,96
5.5758,120
5.5944,115
5.6130,117
5.6316,109
5.6501,101
5.6687,103
5.6873,105
5.7059,109
5.7244,114
5.7430,91
5.7616,99
5.7802,98
5.7988,112
5.8173,96
5.8359,106
5.8545,126
5.8731,116
5.8916,113
5.9102,89
5.9288,110
5.9474,110
5.9659,95
5.9845,93
6.0031,112
6.0217,108
6.0402,92
6.0588,97
6.0774,111
6.0960,86
6.1145,93
6.1331,95
6.1517,95
6.1703,109
6.1888,92
6.2074,100
6.2260,109
6.2446,89
6.2631,79
6.2817,93
6.3003,86
6.3189,107
6.3374,98
6.3560,91
6.3746,103
6.3932,85
6.4117,109
6.4303,102
6.4489,106
6.4675,91
6.4860,109
6.5046,97
6.5232,88
6.5418,86
6.5604,76
6.5789,89
6.5975,104
6.6161,98
6.6347,102
6.6532,70
6.6718,88
6.6904,77
6.7090,98
6.7275,83
6.7461,81
6.7647,83
6.7833,80
6.8018,96
6.8204,90
6.8390,79
6.8576,86
6.8761,70
6.8947,80
6.9133,83
6.9319,80
6.9504,65
6.9690,76
6.9876,82
7.0062,83
7.0247,74
7.0433,58
7.0619,82
7.0805,79
7.0990,67
7.1176,84
7.1362,81
7.1548,96
7.1733,84
7.1919,83
7.2105,69
7.2291,75
7.2476,87
7.2662,75
7.2848,74
7.3034,69
7.3220,72
7.3405,84
7.3591,78
7.3777,93
7.3963,75
7.4148,83
7.4334,83
7.4520,76
7.4706,90
7.4891,79
7.5077,77
7.5263,79
7.5449,98
7.5634,82
7.5820,76
7.6006,81
7.6192,87
7.6377,81
7.6563,69
7.6749,86
7.6935,82
7.7120,91
7.7306,80
7.7492,76
7.7678,94
7.7863,107
7.8049,97
7.8235,99
7.8421,76
7.8606,81
7.8792,79
7.8978,91
7.9164,99
7.9349,91
7.9535,100
7.9721,99
7.9907,90
8.0092,103
8.0278,71
8.0464,99
8.0650,92
8.0835,79
8.1021,83
8.1207,99
8.1393,99
8.1579,91
8.1764,101
8.1950,100
8.2136,92
8.2322,84
8.2507,105
8.2693,101
8.2879,85
8.3065,84
8.3250,108
8.3436,99
8.3622,96
8.3808,115
8.3993,94
8.4179,98
8.4365,97
8.4551,93
8.4736,89
8.4922,108
8.5108,105
8.5294,101
8.5479,111
8.5665,105
8.5851,92
8.6037,91
8.6222,83
8.6408,122
8.6594,81
8.6780,93
8.6965,117
8.7151,115
8.7337,100
8.7523,110
8.7708,86
8.7894,103
8.8080,95
8.8266,109
8.8451,102
8.8637,118
8.8823,104
8.9009,91
8.9195,86
8.9380,111
8.9566,104
8.9752,108
8.9938,91
9.0123,101
9.0309,102
9.0495,105
9.0681,116
9.0866,112
9.1052,109
9.1238,119
9.1424,100
9.1609,109
9.1795,104
9.1981,81
9.2167,117
9.2352,114
9.2538,110
9.2724,121
9.2910,101
9.3095,110
9.3281,116
9.3467,112
9.3653,132
9.3838,107
9.4024,112
9.4210,117
9.4396,112
9.4581,94
9.4767,111
9.4953,109
9.5139,113
9.5324,98
9.5510,120
9.5696,105
9.5882,94
9.6067,101
9.6253,116
9.6439,105
9.6625,122
9.6811,113
9.6996,105
9.7182,105
9.7368,113
9.7554,124
9.7739,127
9.7925,117
9.8111,109
9.8297,131
9.8482,141
9.8668,101
9.8854,109
9.9040,129
9.9225,119
9.9411,108
9.9597,108
9.9783,109
9.9968,128
10.0154,140
10.0340,110
10.0526,125
10.0711,115
10.0897,113
10.1083,119
10.1269,112
10.1454,120
10.1640,118
10.1826,108
10.2012,118
10.2197,111
10.2383,101
10.2569,139
10.2755,118
10.2940,116
10.3126,121
10.3312,99
10.3498,121
10.3683,100
10.3869,114
10.4055,107
10.4241,104
10.4427,110
10.4612,145
10.4798,120
10.4984,124
10.5170,110
10.5355,110
10.5541,112
10.5727,136
10.5913,125
10.6098,122
10.6284,124
10.6470,111
10.6656,113
10.6841,121
10.7027,122
10.7213,124
10.7399,118
10.7584,105
10.7770,139
10.7956,137
10.8142,125
10.8327,118
10.8513,100
10.8699,124
10.8885,114
10.9070,129
10.9256,126
10.9442,103
10.9628,112
10.9813,129
10.9999,100
11.0185,126
11.0371,131
11.0556,132
11.0742,103
11.0928,138
11.1114,118
11.1299,132
11.1485,108
11.1671,116
11.1857,124
11.2043,99
11.2228,125
11.2414,112
11.2600,127
11.2786,121
11.2971,121
11.3157,116
11.3343,103
11.3529,121
11.3714,117
11.3900,106
11.4086,129
11.4272,103
11.4457,105
11.4643,129
11.4829,139
11.5015,102
11.5200,119
11.5386,147
11.5572,118
11.5758,116
11.5943,100
11.6129,131
11.6315,118
11.6501,114
11.6686,121
11.6872,109
11.7058,127
11.7244,124
11.7429,114
11.7615,109
11.7801,100
11.7987,110
11.8172,99
11.8358,114
11.8544,98
11.8730,91
11.8915,129
11.9101,121
11.9287,109
11.9473,107
11.9659,115
11.9844,116
12.0030,140
12.0216,110
12.0402,127
12.0587,108
12.0773,109
12.0959,130
12.1145,110
12.1330,107
12.1516,116
12.1702,119
12.1888,103
12.2073,103
12.2259,96
12.2445,103
12.2631,130
12.2816,115
12.3002,94
12.3188,120
12.3374,105
12.3559,113
12.3745,110
12.3931,113
12.4117,106
12.4302,126
12.4488,123
12.4674,112
12.4860,110
12.5045,107
12.5231,113
12.5417,101
12.5603,110
12.5788,124
12.5974,123
12.6160,98
12.6346,112
12.6531,134
12.6717,110
12.6903,90
12.7089,91
12.7274,100
12.7460,122
12.7646,105
12.7832,120
12.8018,99
12.8203,95
12.8389,104
12.8575,100
12.8761,116
12.8946,89
12.9132,112
12.9318,102
12.9504,107
12.9689,89
12.9875,115
13.0061,88
13.0247,97
13.0432,104
13.0618,112
13.0804,100
13.0990,98
13.1175,106
13.1361,103
13.1547,90
13.1733,99
13.1918,95
13.2104,93
13.2290,111
13.2476,91
13.2661,86
13.2847,98
13.3033,100
13.3219,95
13.3404,87
13.3590,111
13.3776,103
13.3962,91
13.4147,113
13.4333,93
13.4519,97
13.4705,115
13.4890,102
13.5076,92
13.5262,85
13.5448,87
13.5634,100
13.5819,104
13.6005,92
13.6191,97
13.6377,99
13.6562,109
13.6748,90
13.6934,94
13.7120,83
13.7305,102
13.7491,85
13.7677,104
13.7863,109
13.8048,96
13.8234,100
13.8420,95
13.8606,95
13.8791,89
13.8977,106
13.9163,101
13.9349,102
13.9534,96
13.9720,89
13.9906,108
14.0092,94
14.0277,100
14.0463,90
14.0649,94
14.0835,110
14.1020,86
14.1206,93
14.1392,97
14.1578,93
14.1763,76
14.1949,84
14.2135,91
14.2321,98
14.2506,101
14.2692,86
14.2878,89
14.3064,73
14.3250,111
14.3435,100
14.3621,85
14.3807,102
14.3993,69
14.4178,86
14.4364,102
14.4550,84
14.4736,92
14.4921,77
14.5107,105
14.5293,104
14.5479,87
14.5664,86
14.5850,88
14.6036,68
14.6222,96
14.6407,79
14.6593,90
14.6779,85
14.6965,99
14.7150,84
14.7336,74
14.7522,71
14.7708,64
14.7893,78
14.8079,83
14.8265,101
14.8451,90
14.8636,85
14.8822,86
14.9008,89
14.9194,80
14.9379,84
14.9565,90
14.9751,82
14.9937,76
15.0122,83
15.0308,90
15.0494,63
15.0680,69
15.0866,86
15.1051,59
15.1237,85
15.1423,104
15.1609,87
15.1794,81
15.1980,83
15.2166,93
15.2352,92
15.2537,79
15.2723,77
15.2909,86
15.3095,71
15.3280,94
15.3466,78
15.3652,65
15.3838,81
15.4023,86
15.4209,79
15.4395,98
15.4581,85
15.4766,87
15.4952,88
15.5138,87
15.5324,96
15.5509,83
15.5695,62
15.5881,73
15.6067,82
15.6252,76
15.6438,72
15.6624,82
15.6810,93
15.6995,76
15.7181,82
15.7367,83
15.7553,78
15.7738,83
15.7924,77
15.8110,76
15.8296,70
15.8482,70
15.8667,78
15.8853,97
15.9039,88
15.9225,90
15.9410,92
15.9596,86
15.9782,90
15.9968,80
16.0153,91
16.0339,64
16.0525,80
16.0711,97
16.0896,74
16.1082,80
16.1268,90
16.1454,69
16.1639,89
16.1825,68
16.2011,93
16.2197,79
16.2382,76
16.2568,78
16.2754,97
16.2940,86
16.3125,104
16.3311,88
16.3497,87
16.3683,78
16.3868,76
16.4054,68
16.4240,88
16.4426,74
16.4611,68
16.4797,85
16.4983,78
16.5169,76
16.5354,92
16.5540,90
16.5726,77
16.5912,73
16.6097,84
16.6283,88
16.6469,70
16.6655,89
16.6841,72
16.7026,92
16.7212,84
16.7398,74
16.7584,65
16.7769,93
16.7955,78
16.8141,85
16.8327,89
16.8512,84
16.8698,80
16.8884,88
16.9070,83
16.9255,68
16.9441,78
16.9627,73
16.9813,78
16.9998,71
17.0184,107
17.0370,77
17.0556,74
17.0741,60
17.0927,70
17.1113,74
17.1299,85
17.1484,80
17.1670,86
17.1856,70
17.2042,75
17.2227,70
17.2413,77
17.2599,98
17.2785,75
17.2970,88
17.3156,85
17.3342,74
17.3528,78
17.3713,93
17.3899,81
17.4085,90
17.4271,85
17.4457,77
17.4642,76
17.4828,89
17.5014,70
17.5200,80
17.5385,93
17.5571,64
17.5757,76
17.5943,71
17.6128,86
17.6314,75
17.6500,67
17.6686,78
17.6871,75
17.7057,93
17.7243,94
17.7429,87
17.7614,102
17.7800,75
17.7986,89
17.8172,79
17.8357,78
17.8543,81
17.8729,84
17.8915,77
17.9100,85
17.9286,77
17.9472,69
17.9658,103
17.9843,77
18.0029,77
18.0215,71
18.0401,75
18.0586,74
18.0772,77
18.0958,82
18.1144,79
18.1329,79
18.1515,76
18.1701,74
18.1887,93
18.2073,76
18.2258,85
18.2444,74
18.2630,79
18.2816,71
18.3001,88
18.3187,86
18.3373,83
18.3559,91
18.3744,80
18.3930,92
18.4116,83
18.4302,69
18.4487,89
18.4673,76
18.4859,64
18.5045,88
18.5230,82
18.5416,72
18.5602,71
18.5788,75
18.5973,88
18.6159,88
18.6345,74
18.6531,81
18.6716,76
18.6902,104
18.7088,75
18.7274,82
18.7459,88
18.7645,88
18.7831,62
18.8017,88
18.8202,85
18.8388,89
18.8574,87
18.8760,83
18.8945,94
18.9131,85
18.9317,86
18.9503,94
18.9689,81
18.9874,88
19.0060,70
19.0246,74
19.0432,97
19.0617,73
19.0803,67
19.0989,103
19.1175,75
19.1360,90
19.1546,85
19.1732,88
19.1918,97
19.2103,92
19.2289,86
19.2475,90
19.2661,79
19.2846,84
19.3032,88
19.3218,83
19.3404,87
19.3589,89
19.3775,94
19.3961,70
19.4147,101
19.4332,109
19.4518,93
19.4704,83
19.4890,77
19.5075,81
19.5261,90
19.5447,94
19.5633,108
19.5818,75
19.6004,111
19.6190,106
19.6376,76
19.6561,80
19.6747,85
19.6933,111
19.7119,83
19.7305,90
19.7490,87
19.7676,71
19.7862,74
19.8048,80
19.8233,80
19.8419,100
19.8605,83
19.8791,98
19.8976,88
19.9162,85
19.9348,93
19.9534,77
19.9719,109
19.9905,81
20.0091,87
20.0277,87
20.0462,79
20.0648,86
20.0834,88
20.1020,77
20.1205,99
20.1391,83
20.1577,88
20.1763,96
20.1948,83
20.2134,101
20.2320,91
20.2506,83
20.2691,86
20.2877,109
20.3063,105
20.3249,87
20.3434,95
20.3620,82
20.3806,104
20.3992,93
20.4177,87
20.4363,79
20.4549,96
20.4735,92
20.4921,102
20.5106,118
20.5292,98
20.5478,108
20.5664,89
20.5849,94
20.6035,107
20.6221,75
20.6407,104
20.6592,81
20.6778,83
20.6964,92
20.7150,89
20.7335,83
20.7521,89
20.7707,90
20.7893,89
20.8078,109
20.8264,86
20.8450,103
20.8636,116
20.8821,105
20.9007,74
20.9193,100
20.9379,101
20.9564,95
20.9750,104
20.9936,87
21.0122,108
21.0307,83
21.0493,107
21.0679,100
21.0865,116
21.1050,96
21.1236,133
21.1422,110
21.1608,112
21.1793,128
21.1979,148
21.2165,150
21.2351,168
21.2537,162
21.2722,135
21.2908,146
21.3094,159
21.3280,183
21.3465,259
21.3651,260
21.3837,197
21.4023,182
21.4208,185
21.4394,143
21.4580,108
21.4766,110
21.4951,93
21.5137,92
21.5323,107
21.5509,91
21.5694,106
21.5880,108
21.6066,117
21.6252,108
21.6437,87
21.6623,80
21.6809,94
21.6995,104
21.7180,102
21.7366,99
21.7552,98
21.7738,96
21.7923,95
21.8109,104
21.8295,99
21.8481,98
21.8666,93
21.8852,96
21.9038,96
21.9224,122
21.9409,83
21.9595,107
21.9781,97
21.9967,97
22.0152,100
22.0338,100
22.0524,114
22.0710,84
22.0896,88
22.1081,117
22.1267,100
22.1453,91
22.1639,103
22.1824,106
22.2010,92
22.2196,83
22.2382,94
22.2567,88
22.2753,115
22.2939,109
22.3125,106
22.3310,98
22.3496,95
22.3682,99
22.3868,105
22.4053,96
22.4239,94
22.4425,100
22.4611,99
22.4796,97
22.4982,102
22.5168,106
22.5354,104
22.5539,80
22.5725,81
22.5911,104
22.6097,107
22.6282,86
22.6468,99
22.6654,111
22.6840,118
22.7025,94
22.7211,99
22.7397,94
22.7583,111
22.7768,96
22.7954,106
22.8140,96
22.8326,70
22.8512,106
22.8697,93
22.8883,79
22.9069,107
22.9255,113
22.9440,98
22.9626,94
22.9812,98
22.9998,100
23.0183,95
23.0369,116
23.0555,114
23.0741,94
23.0926,95
23.1112,92
23.1298,108
23.1484,94
23.1669,96
23.1855,99
23.2041,90
23.2227,101
23.2412,102
23.2598,97
23.2784,102
23.2970,93
23.3155,94
23.3341,98
23.3527,90
23.3713,102
23.3898,96
23.4084,100
23.4270,107
23.4456,90
23.4641,107
23.4827,106
23.5013,106
23.5199,100
23.5384,93
23.5570,84
23.5756,85
23.5942,85
23.6128,84
23.6313,87
23.6499,108
23.6685,108
23.6871,111
23.7056,112
23.7242,102
23.7428,86
23.7614,107
23.7799,95
23.7985,116
23.8171,95
23.8357,90
23.8542,101
23.8728,95
23.8914,96
23.9100,113
23.9285,98
23.9471,101
23.9657,114
23.9843,94
24.0028,90
24.0214,106
24.0400,103
24.0586,103
24.0771,94
24.0957,89
24.1143,93
24.1329,106
24.1514,97
24.1700,100
24.1886,97
24.2072,98
24.2257,111
24.2443,109
24.2629,120
24.2815,107
24.3000,126
24.3186,93
24.3372,118
24.3558,119
24.3744,86
24.3929,91
24.4115,84
24.4301,98
24.4487,102
24.4672,95
24.4858,107
24.5044,106
24.5230,112
24.5415,99
24.5601,90
24.5787,92
24.5973,91
24.6158,101
24.6344,105
24.6530,89
24.6716,92
24.6901,84
24.7087,106
24.7273,110
24.7459,104
24.7644,96
24.7830,99
24.8016,104
24.8202,100
24.8387,102
24.8573,105
24.8759,89
24.8945,111
24.9130,98
24.9316,124
24.9502,64
24.9688,91
24.9873,94
25.0059,88
25.0245,107
25.0431,114
25.0616,109
25.0802,90
25.0988,83
25.1174,94
25.1360,99
25.1545,92
25.1731,77
25.1917,111
25.2103,98
25.2288,112
25.2474,108
25.2660,87
25.2846,93
25.3031,88
25.3217,119
25.3403,95
25.3589,87
25.3774,125
25.3960,101
25.4146,93
25.4332,96
25.4517,99
25.4703,100
25.4889,89
25.5075,85
25.5260,73
25.5446,98
25.5632,92
25.5818,75
25.6003,92
25.6189,87
25.6375,101
25.6561,109
25.6746,88
25.6932,93
25.7118,93
25.7304,102
25.7489,100
25.7675,93
25.7861,93
25.8047,85
25.8232,96
25.8418,108
25.8604,99
25.8790,96
25.8976,117
25.9161,94
25.9347,90
25.9533,109
25.9719,108
25.9904,111
26.0090,98
26.0276,89
26.0462,93
26.0647,109
26.0833,89
26.1019,94
26.1205,98
26.1390,100
26.1576,94
26.1762,93
26.1948,81
26.2133,89
26.2319,106
26.2505,101
26.2691,90
26.2876,76
26.3062,97
26.3248,85
26.3434,91
26.3619,107
26.3805,98
26.3991,81
26.4177,96
26.4362,96
26.4548,95
26.4734,83
26.4920,76
26.5105,93
26.5291,103
26.5477,81
26.5663,75
26.5848,73
26.6034,89
26.6220,85
26.6406,93
26.6591,91
26.6777,94
26.6963,101
26.7149,99
26.7335,77
26.7520,92
26.7706,79
26.7892,85
26.8078,86
26.8263,90
26.8449,117
26.8635,102
26.8821,93
26.9006,93
26.9192,108
26.9378,99
26.9564,92
26.9749,96
26.9935,102
27.0121,94
27.0307,104
27.0492,93
27.0678,93
27.0864,81
27.1050,86
27.1235,94
27.1421,108
27.1607,119
27.1793,102
27.1978,127
27.2164,113
27.2350,107
27.2536,112
27.2721,105
27.2907,114
27.3093,73
27.3279,107
27.3464,94
27.3650,99
27.3836,71
27.4022,82
27.4207,102
27.4393,95
27.4579,113
27.4765,89
27.4951,90
27.5136,90
27.5322,95
27.5508,92
27.5694,110
27.5879,100
27.6065,92
27.6251,90
27.6437,83
27.6622,86
27.6808,78
27.6994,78
27.7180,91
27.7365,88
27.7551,82
27.7737,93
27.7923,96
27.8108,74
27.8294,84
27.8480,97
27.8666,98
27.8851,94
27.9037,92
27.9223,84
27.9409,96
27.9594,75
27.9780,73
27.9966,71
28.0152,88
28.0337,74
28.0523,81
28.0709,89
28.0895,94
28.1080,75
28.1266,81
28.1452,100
28.1638,88
28.1823,56
28.2009,79
28.2195,78
28.2381,92
28.2567,81
28.2752,93
28.2938,91
28.3124,89
28.3310,77
28.3495,81
28.3681,89
28.3867,74
28.4053,81
28.4238,88
28.4424,81
28.4610,77
28.4796,90
28.4981,75
28.5167,90
28.5353,75
28.5539,70
28.5724,91
28.5910,66
28.6096,90
28.6282,84
28.6467,93
28.6653,88
28.6839,75
28.7025,94
28.7210,83
28.7396,74
28.7582,91
28.7768,97
28.7953,85
28.8139,85
28.8325,106
28.8511,83
28.8696,96
28.8882,76
28.9068,77
28.9254,74
28.9439,79
28.9625,104
28.9811,87
28.9997,81
29.0183,95
29.0368,62
29.0554,82
29.0740,93
29.0926,88
29.1111,67
29.1297,80
29.1483,66
29.1669,70
29.1854,84
29.2040,86
29.2226,79
29.2412,107
29.2597,83
29.2783,86
29.2969,76
29.3155,76
29.3340,70
29.3526,74
29.3712,65
29.3898,75
29.4083,92
29.4269,84
29.4455,68
29.4641,70
29.4826,76
29.5012,102
29.5198,80
29.5384,80
29.5569,69
29.5755,80
29.5941,70
29.6127,59
29.6312,74
29.6498,81
29.6684,80
29.6870,87
29.7055,69
29.7241,94
29.7427,71
29.7613,75
29.7799,74
29.7984,104
29.8170,61
29.8356,75
29.8542,71
29.8727,92
29.8913,71
29.9099,77
29.9285,69
29.9470,66
29.9656,69
29.9842,71
30.0028,96
30.0213,55
30.0399,80
30.0585,86
30.0771,83
30.0956,83
30.1142,69
30.1328,68
30.1514,102
30.1699,78
30.1885,77
30.2071,77
30.2257,61
30.2442,86
30.2628,78
30.2814,80
30.3000,106
30.3185,85
30.3371,101
30.3557,117
30.3743,160
30.3928,179
30.4114,127
30.4300,117
30.4486,115
30.4671,133
30.4857,119
30.5043,85
30.5229,81
30.5415,71
30.5600,80
30.5786,99
30.5972,100
30.6158,88
30.6343,82
30.6529,88
30.6715,82
30.6901,81
30.7086,76
30.7272,76
30.7458,74
30.7644,62
30.7829,75
30.8015,65
30.8201,63
30.8387,62
30.8572,69
30.8758,84
30.8944,79
30.9130,76
30.9315,85
30.9501,81
30.9687,76
30.9873,77
31.0058,72
31.0244,70
31.0430,69
31.0616,72
31.0801,65
31.0987,82
31.1173,65
31.1359,76
31.1544,66
31.1730,65
31.1916,73
31.2102,69
31.2287,61
31.2473,64
31.2659,78
31.2845,72
31.3030,73
31.3216,75
31.3402,70
31.3588,83
31.3774,68
31.3959,66
31.4145,63
31.4331,56
31.4517,66
31.4702,64
31.4888,70
31.5074,84
31.5260,89
31.5445,64
31.5631,71
31.5817,56
31.6003,68
31.6188,69
31.6374,65
31.6560,66
31.6746,60
31.6931,80
31.7117,58
31.7303,57
31.7489,73
31.7674,60
31.7860,66
31.8046,70
31.8232,65
31.8417,69
31.8603,60
31.8789,63
31.8975,60
31.9160,71
31.9346,74
31.9532,60
31.9718,60
31.9903,58
32.0089,64
32.0275,73
32.0461,58
32.0646,59
32.0832,51
32.1018,73
32.1204,60
32.1390,70
32.1575,55
32.1761,70
32.1947,57
32.2133,74
32.2318,75
32.2504,59
32.2690,50
32.2876,58
32.3061,75
32.3247,52
32.3433,65
32.3619,67
32.3804,70
32.3990,77
32.4176,63
32.4362,72
32.4547,97
32.4733,78
32.4919,74
32.5105,94
32.5290,74
32.5476,81
32.5662,69
32.5848,73
32.6033,70
32.6219,78
32.6405,66
32.6591,69
32.6776,76
32.6962,68
32.7148,68
32.7334,85
32.7519,64
32.7705,52
32.7891,65
32.8077,61
32.8262,59
32.8448,55
32.8634,83
32.8820,54
32.9006,75
32.9191,52
32.9377,60
32.9563,71
32.9749,61
32.9934,52
33.0120,57
33.0306,58
33.0492,60
33.0677,51
33.0863,61
33.1049,63
33.1235,60
33.1420,67
33.1606,65
33.1792,71
33.1978,59
33.2163,58
33.2349,48
33.2535,42
33.2721,50
33.2906,65
33.3092,67
33.3278,75
33.3464,67
33.3649,48
33.3835,53
33.4021,65
33.4207,67
33.4392,59
33.4578,53
33.4764,57
33.4950,64
33.5135,50
33.5321,51
33.5507,51
33.5693,56
33.5878,55
33.6064,48
33.6250,63
33.6436,58
33.6622,43
33.6807,51
33.6993,55
33.7179,55
33.7365,49
33.7550,54
33.7736,57
33.7922,49
33.8108,47
33.8293,54
33.8479,51
33.8665,55
33.8851,54
33.9036,67
33.9222,55
33.9408,64
33.9594,55
33.9779,65
33.9965,57
34.0151,54
34.0337,56
34.0522,68
34.0708,60
34.0894,53
34.1080,55
34.1265,63
34.1451,57
34.1637,50
34.1823,57
34.2008,62
34.2194,60
34.2380,71
34.2566,50
34.2751,42
34.2937,53
34.3123,58
34.3309,52
34.3494,44
34.3680,58
34.3866,61
34.4052,72
34.4238,51
34.4423,49
34.4609,74
34.4795,66
34.4981,56
34.5166,68
34.5352,61
34.5538,60
34.5724,57
34.5909,63
34.6095,68
34.6281,65
34.6467,53
34.6652,63
34.6838,58
34.7024,61
34.7210,82
34.7395,70
34.7581,89
34.7767,83
34.7953,69
34.8138,67
34.8324,83
34.8510,94
34.8696,67
34.8881,87
34.9067,74
34.9253,56
34.9439,48
34.9624,62
34.9810,49
34.9996,49
35.0182,67
35.0367,38
35.0553,65
35.0739,60
35.0925,49
35.1110,39
35.1296,56
35.1482,52
35.1668,50
35.1854,47
35.2039,54
35.2225,34
35.2411,60
35.2597,41
35.2782,52
35.2968,62
35.3154,61
35.3340,59
35.3525,59
35.3711,66
35.3897,51
35.4083,38
35.4268,57
35.4454,53
35.4640,51
35.4826,50
35.5011,42
35.5197,42
35.5383,54
35.5569,42
35.5754,55
35.5940,50
35.6126,49
35.6312,39
35.6497,43
35.6683,51
35.6869,55
35.7055,54
35.7240,50
35.7426,52
35.7612,50
35.7798,60
35.7983,43
35.8169,49
35.8355,44
35.8541,59
35.8726,49
35.8912,62
35.9098,43
35.9284,51
35.9469,53
35.9655,52
35.9841,55
36.0027,42
36.0213,58
36.0398,51
36.0584,42
36.0770,51
36.0956,49
36.1141,50
36.1327,43
36.1513,46
36.1699,43
36.1884,39
36.2070,58
36.2256,57
36.2442,50
36.2627,61
36.2813,50
36.2999,36
36.3185,52
36.3370,51
36.3556,54
36.3742,46
36.3928,36
36.4113,44
36.4299,59
36.4485,41
36.4671,35
36.4856,61
36.5042,40
36.5228,44
36.5414,43
36.5599,53
36.5785,61
36.5971,38
36.6157,48
36.6342,45
36.6528,39
36.6714,44
36.6900,36
36.7085,37
36.7271,38
36.7457,44
36.7643,44
36.7829,46
36.8014,58
36.8200,44
36.8386,59
36.8572,38
36.8757,49
36.8943,37
36.9129,48
36.9315,44
36.9500,46
36.9686,50
36.9872,38
37.0058,54
37.0243,37
37.0429,46
37.0615,54
37.0801,41
37.0986,49
37.1172,50
37.1358,63
37.1544,39
37.1729,49
37.1915,57
37.2101,44
37.2287,56
37.2472,44
37.2658,46
37.2844,41
37.3030,65
37.3215,39
37.3401,40
37.3587,52
37.3773,41
37.3958,55
37.4144,64
37.4330,80
37.4516,88
37.4701,55
37.4887,61
37.5073,49
37.5259,44
37.5445,70
37.5630,55
37.5816,57
37.6002,51
37.6188,48
37.6373,52
37.6559,41
37.6745,46
37.6931,51
37.7116,40
37.7302,30
37.7488,35
37.7674,41
37.7859,39
37.8045,44
37.8231,36
37.8417,39
37.8602,41
37.8788,44
37.8974,50
37.9160,41
37.9345,37
37.9531,41
37.9717,53
37.9903,51
38.0088,44
38.0274,46
38.0460,49
38.0646,42
38.0831,41
38.1017,42
38.1203,42
38.1389,53
38.1574,50
38.1760,36
38.1946,41
38.2132,56
38.2317,33
38.2503,41
38.2689,45
38.2875,45
38.3061,46
38.3246,33
38.3432,42
38.3618,49
38.3804,44
38.3989,27
38.4175,39
38.4361,36
38.4547,39
38.4732,42
38.4918,39
38.5104,29
38.5290,41
38.5475,44
38.5661,51
38.5847,37
38.6033,38
38.6218,34
38.6404,47
38.6590,49
38.6776,38
38.6961,43
38.7147,44
38.7333,46
38.7519,35
38.7704,47
38.7890,49
38.8076,37
38.8262,36
38.8447,40
38.8633,37
38.8819,53
38.9005,44
38.9190,47
38.9376,42
38.9562,36
38.9748,47
38.9933,41
39.0119,46
39.0305,39
39.0491,38
39.0677,34
39.0862,41
39.1048,40
39.1234,40
39.1420,37
39.1605,28
39.1791,35
39.1977,44
39.2163,44
39.2348,32
39.2534,43
39.2720,45
39.2906,51
39.3091,48
39.3277,52
39.3463,56
39.3649,35
39.3834,43
39.4020,40
39.4206,40
39.4392,29
39.4577,36
39.4763,36
39.4949,34
39.5135,43
39.5320,39
39.5506,43
39.5692,31
39.5878,42
39.6063,32
39.6249,33
39.6435,33
39.6621,47
39.6806,46
39.6992,30
39.7178,38
39.7364,37
39.7549,39
39.7735,39
39.7921,31
39.8107,49
39.8293,49
39.8478,38
39.8664,51
39.8850,41
39.9036,38
39.9221,47
39.9407,39
39.9593,33
39.9779,42
39.9964,31
40.0150,42
40.0336,35
40.0522,32
40.0707,41
40.0893,43
40.1079,38
40.1265,32
40.1450,32
40.1636,42
40.1822,39
40.2008,35
40.2193,41
40.2379,36
40.2565,40
40.2751,36
40.2936,39
40.3122,46
40.3308,34
40.3494,48
40.3679,47
40.3865,41
40.4051,33
40.4237,31
40.4422,41
40.4608,38
40.4794,41
40.4980,37
40.5165,42
40.5351,31
40.5537,25
40.5723,42
40.5908,45
40.6094,40
40.6280,31
40.6466,45
40.6652,50
40.6837,28
40.7023,40
40.7209,40
40.7395,48
40.7580,38
40.7766,43
40.7952,43
40.8138,38
40.8323,39
40.8509,36
40.8695,44
40.8881,29
40.9066,37
40.9252,39
40.9438,40
40.9624,43
40.9809,27
40.9995,36
41.0181,46
41.0367,38
41.0552,40
41.0738,46
41.0924,35
41.1110,27
41.1295,39
41.1481,37
41.1667,44
41.1853,40
41.2038,33
41.2224,38
41.2410,44
41.2596,37
41.2781,39
41.2967,40
41.3153,60
41.3339,37
41.3524,31
41.3710,38
41.3896,38
41.4082,51
41.4268,40
41.4453,49
41.4639,43
41.4825,43
41.5011,39
41.5196,30
41.5382,39
41.5568,37
41.5754,36
41.5939,39
41.6125,43
41.6311,31
41.6497,34
41.6682,42
41.6868,47
41.7054,41
41.7240,40
41.7425,46
41.7611,44
41.7797,43
41.7983,30
41.8168,37
41.8354,46
41.8540,35
41.8726,35
41.8911,30
41.9097,38
41.9283,33
41.9469,45
41.9654,34
41.9840,22
42.0026,41
42.0212,37
42.0397,40
42.0583,31
42.0769,34
42.0955,35
42.1140,42
42.1326,26
42.1512,35
42.1698,34
42.1884,39
42.2069,34
42.2255,42
42.2441,41
42.2627,29
42.2812,46
42.2998,38
42.3184,40
42.3370,28
42.3555,35
42.3741,43
42.3927,37
42.4113,40
42.4298,52
42.4484,31
42.4670,50
42.4856,33
42.5041,41
42.5227,37
42.5413,34
42.5599,49
42.5784,35
42.5970,22
42.6156,23
42.6342,30
42.6527,36
42.6713,36
42.6899,36
42.7085,38
42.7270,43
42.7456,37
42.7642,30
42.7828,22
42.8013,37
42.8199,37
42.8385,31
42.8571,34
42.8756,27
42.8942,34
42.9128,45
42.9314,47
42.9500,34
42.9685,26
42.9871,39
43.0057,39
43.0243,37
43.0428,35
43.0614,36
43.0800,47
43.0986,41
43.1171,36
43.1357,38
43.1543,45
43.1729,46
43.1914,44
43.2100,41
43.2286,50
43.2472,44
43.2657,49
43.2843,54
43.3029,43
43.3215,38
43.3400,52
43.3586,47
43.3772,45
43.3958,42
43.4143,34
43.4329,43
43.4515,29
43.4701,57
43.4886,57
43.5072,57
43.5258,57
43.5444,40
43.5629,50
43.5815,37
43.6001,45
43.6187,58
43.6372,48
43.6558,38
43.6744,28
43.6930,28
43.7116,32
43.7301,52
43.7487,34
43.7673,42
43.7859,30
43.8044,27
43.8230,34
43.8416,32
43.8602,44
43.8787,46
43.8973,28
43.9159,38
43.9345,41
43.9530,35
43.9716,40
43.9902,39
44.0088,33
44.0273,39
44.0459,31
44.0645,28
44.0831,37
44.1016,39
44.1202,47
44.1388,44
44.1574,35
44.1759,38
44.1945,41
44.2131,30
44.2317,33
44.2502,36
44.2688,35
44.2874,40
44.3060,43
44.3245,48
44.3431,38
44.3617,42
44.3803,33
44.3988,32
44.4174,21
44.4360,41
44.4546,33
44.4732,29
44.4917,40
44.5103,33
44.5289,29
44.5475,40
44.5660,34
44.5846,32
44.6032,42
44.6218,42
44.6403,47
44.6589,38
44.6775,33
44.6961,31
44.7146,41
44.7332,47
44.7518,42
44.7704,35
44.7889,33
44.8075,46
44.8261,35
44.8447,30
44.8632,43
44.8818,36
44.9004,37
44.9190,39
44.9375,34
44.9561,25
44.9747,38
44.9933,44
45.0118,34
45.0304,41
45.0490,38
45.0676,35
45.0861,37
45.1047,32
45.1233,32
45.1419,35
45.1604,40
45.1790,28
45.1976,27
45.2162,44
45.2347,32
45.2533,31
45.2719,43
45.2905,39
45.3091,42
45.3276,27
45.3462,42
45.3648,23
45.3834,39
45.4019,32
45.4205,32
45.4391,29
45.4577,28
45.4762,32
45.4948,26
45.5134,31
45.5320,40
45.5505,38
45.5691,30
45.5877,30
45.6063,27
45.6248,46
45.6434,19
45.6620,43
45.6806,31
45.6991,46
45.7177,32
45.7363,31
45.7549,39
45.7734,37
45.7920,34
45.8106,32
45.8292,33
45.8477,33
45.8663,30
45.8849,40
45.9035,42
45.9220,39
45.9406,35
45.9592,34
45.9778,29
45.9963,30
46.0149,36
46.0335,27
46.0521,33
46.0707,26
46.0892,36
46.1078,23
46.1264,45
46.1450,31
46.1635,38
46.1821,29
46.2007,24
46.2193,21
46.2378,42
46.2564,23
46.2750,30
46.2936,32
46.3121,30
46.3307,33
46.3493,24
46.3679,34
46.3864,27
46.4050,40
46.4236,31
46.4422,42
46.4607,40
46.4793,35
46.4979,23
46.5165,32
46.5350,35
46.5536,31
46.5722,37
46.5908,32
46.6093,31
46.6279,40
46.6465,36
46.6651,23
46.6836,35
46.7022,27
46.7208,24
46.7394,35
46.7579,30
46.7765,26
46.7951,30
46.8137,29
46.8323,30
46.8508,35
46.8694,40
46.8880,29
46.9066,30
46.9251,38
46.9437,34
46.9623,34
46.9809,35
46.9994,33
47.0180,37
47.0366,30
47.0552,33
47.0737,32
47.0923,35
47.1109,34
47.1295,33
47.1480,22
47.1666,31
47.1852,28
47.2038,30
47.2223,21
47.2409,27
47.2595,30
47.2781,41
47.2966,26
47.3152,28
47.3338,31
47.3524,29
47.3709,36
47.3895,29
47.4081,27
47.4267,35
47.4452,24
47.4638,38
47.4824,40
47.5010,32
47.5195,30
47.5381,25
47.5567,37
47.5753,35
47.5939,28
47.6124,36
47.6310,31
47.6496,35
47.6682,23
47.6867,32
47.7053,32
47.7239,21
47.7425,25
47.7610,33
47.7796,24
47.7982,27
47.8168,31
47.8353,19
47.8539,35
47.8725,27
47.8911,28
47.9096,31
47.9282,34
47.9468,35
47.9654,25
47.9839,31
48.0025,27
48.0211,26
48.0397,26
48.0582,40
48.0768,33
48.0954,32
48.1140,28
48.1325,28
48.1511,35
48.1697,28
48.1883,26
48.2068,22
48.2254,23
48.2440,35
48.2626,38
48.2811,29
48.2997,30
48.3183,36
48.3369,33
48.3555,42
48.3740,35
48.3926,29
48.4112,28
48.4298,19
48.4483,31
48.4669,31
48.4855,27
48.5041,49
48.5226,32
48.5412,32
48.5598,27
48.5784,35
48.5969,32
48.6155,21
48.6341,26
48.6527,33
48.6712,32
48.6898,29
48.7084,33
48.7270,39
48.7455,28
48.7641,25
48.7827,25
48.8013,26
48.8198,30
48.8384,37
48.8570,31
48.8756,38
48.8941,35
48.9127,45
48.9313,38
48.9499,62
48.9684,59
48.9870,51
49.0056,38
49.0242,41
49.0427,37
49.0613,39
49.0799,38
49.0985,48
49.1171,49
49.1356,28
49.1542,42
49.1728,30
49.1914,31
49.2099,29
49.2285,26
49.2471,27
49.2657,29
49.2842,22
49.3028,35
49.3214,21
49.3400,29
49.3585,26
49.3771,21
49.3957,36
49.4143,24
49.4328,30
49.4514,25
49.4700,23
49.4886,25
49.5071,31
49.5257,36
49.5443,23
49.5629,30
49.5814,29
49.6000,36
49.6186,25
49.6372,40
49.6557,31
49.6743,29
49.6929,26
49.7115,32
49.7300,27
49.7486,38
49.7672,23
49.7858,32
49.8043,36
49.8229,34
49.8415,22
49.8601,24
49.8786,29
49.8972,35
49.9158,27
49.9344,31
49.9530,28
49.9715,30
49.9901,28
50.0087,31
50.0273,32
50.0458,26
50.0644,35
50.0830,37
50.1016,27
50.1201,19
50.1387,23
50.1573,32
50.1759,29
50.1944,28
50.2130,40
50.2316,33
50.2502,34
50.2687,30
50.2873,25
50.3059,26
50.3245,35
50.3430,21
50.3616,32
50.3802,39
50.3988,35
50.4173,31
50.4359,29
50.4545,28
50.4731,35
50.4916,38
50.5102,29
50.5288,36
50.5474,29
50.5659,37
50.5845,38
50.6031,24
50.6217,23
50.6402,27
50.6588,28
50.6774,34
50.6960,30
50.7146,25
50.7331,27
50.7517,32
50.7703,32
50.7889,30
50.8074,26
50.8260,27
50.8446,26
50.8632,28
50.8817,24
50.9003,29
50.9189,23
50.9375,26
50.9560,30
50.9746,26
50.9932,32
51.0118,35
51.0303,29
51.0489,23
51.0675,22
51.0861,36
51.1046,44
51.1232,28
51.1418,34
51.1604,31
51.1789,31
51.1975,24
51.2161,37
51.2347,23
51.2532,35
51.2718,26
51.2904,24
51.3090,21
51.3275,31
51.3461,28
51.3647,32
51.3833,28
51.4018,38
51.4204,37
51.4390,30
51.4576,26
51.4762,32
51.4947,28
51.5133,31
51.5319,33
51.5505,44
51.5690,40
51.5876,30
51.6062,28
51.6248,32
51.6433,35
51.6619,23
51.6805,34
51.6991,39
51.7176,33
51.7362,29
51.7548,26
51.7734,38
51.7919,21
51.8105,28
51.8291,33
51.8477,24
51.8662,38
51.8848,34
51.9034,25
51.9220,34
51.9405,25
51.9591,33
51.9777,26
51.9963,39
52.0148,20
52.0334,26
52.0520,34
52.0706,31
52.0891,38
52.1077,26
52.1263,34
52.1449,30
52.1634,25
52.1820,32
52.2006,27
52.2192,34
52.2378,23
52.2563,38
52.2749,27
52.2935,31
52.3121,29
52.3306,28
52.3492,26
52.3678,30
52.3864,27
52.4049,30
52.4235,38
52.4421,37
52.4607,16
52.4792,25
52.4978,28
52.5164,38
52.5350,23
52.5535,32
52.5721,26
52.5907,26
52.6093,27
52.6278,31
52.6464,33
52.6650,26
52.6836,23
52.7021,32
52.7207,25
52.7393,32
52.7579,29
52.7764,28
52.7950,27
52.8136,32
52.8322,22
52.8507,34
52.8693,35
52.8879,32
52.9065,35
52.9250,23
52.9436,29
52.9622,25
52.9808,38
52.9994,30
53.0179,33
53.0365,17
53.0551,25
53.0737,30
53.0922,18
53.1108,24
53.1294,24
53.1480,22
53.1665,29
53.1851,25
53.2037,40
53.2223,35
53.2408,27
53.2594,22
53.2780,33
53.2966,35
53.3151,26
53.3337,31
53.3523,36
53.3709,27
53.3894,34
53.4080,21
53.4266,34
53.4452,30
53.4637,29
53.4823,20
53.5009,26
53.5195,31
53.5380,28
53.5566,29
53.5752,27
53.5938,28
53.6123,31
53.6309,26
53.6495,27
53.6681,21
53.6866,31
53.7052,36
53.7238,29
53.7424,25
53.7610,29
53.7795,27
53.7981,37
53.8167,34
53.8353,32
53.8538,27
53.8724,23
53.8910,31
53.9096,32
53.9281,33
53.9467,30
53.9653,35
53.9839,53
54.0024,28
54.0210,20
54.0396,39
54.0582,32
54.0767,30
54.0953,26
54.1139,34
54.1325,32
54.1510,34
54.1696,40
54.1882,30
54.2068,30
54.2253,30
54.2439,30
54.2625,22
54.2811,29
54.2996,26
54.3182,31
54.3368,23
54.3554,27
54.3739,32
54.3925,25
54.4111,29
54.4297,35
54.4482,38
54.4668,31
54.4854,28
54.5040,23
54.5225,27
54.5411,34
54.5597,31
54.5783,34
54.5969,24
54.6154,29
54.6340,26
54.6526,20
54.6712,20
54.6897,30
54.7083,19
54.7269,29
54.7455,26
54.7640,27
54.7826,27
54.8012,24
54.8198,36
54.8383,27
54.8569,30
54.8755,36
54.8941,15
54.9126,32
54.9312,26
54.9498,35
54.9684,22
54.9869,23
55.0055,32
55.0241,28
55.0427,28
55.0612,33
55.0798,26
55.0984,24
55.1170,22
55.1355,29
55.1541,20
55.1727,29
55.1913,31
55.2098,25
55.2284,36
55.2470,29
55.2656,30
55.2841,27
55.3027,24
55.3213,36
55.3399,28
55.3585,18
55.3770,29
55.3956,41
55.4142,27
55.4328,28
55.4513,41
55.4699,32
55.4885,27
55.5071,36
55.5256,25
55.5442,30
55.5628,26
55.5814,28
55.5999,20
55.6185,26
55.6371,26
55.6557,28
55.6742,26
55.6928,28
55.7114,33
55.7300,30
55.7485,25
55.7671,29
55.7857,25
55.8043,22
55.8228,29
55.8414,35
55.8600,24
55.8786,23
55.8971,23
55.9157,24
55.9343,29
55.9529,29
55.9714,32
55.9900,23
56.0086,26
56.0272,28
56.0457,26
56.0643,37
56.0829,23
56.1015,21
56.1201,28
56.1386,30
56.1572,30
56.1758,24
56.1944,34
56.2129,23
56.2315,36
56.2501,21
56.2687,19
56.2872,31
56.3058,22
56.3244,24
56.3430,22
56.3615,25
56.3801,33
56.3987,32
56.4173,32
56.4358,33
56.4544,26
56.4730,33
56.4916,25
56.5101,20
56.5287,29
56.5473,26
56.5659,29
56.5844,21
56.6030,32
56.6216,30
56.6402,36
56.6587,24
56.6773,26
56.6959,34
56.7145,25
56.7330,27
56.7516,31
56.7702,26
56.7888,22
56.8073,27
56.8259,30
56.8445,21
56.8631,31
56.8817,19
56.9002,31
56.9188,16
56.9374,36
56.9560,31
56.9745,26
56.9931,23
57.0117,40
57.0303,29
57.0488,29
57.0674,20
57.0860,24
57.1046,23
57.1231,32
57.1417,24
57.1603,26
57.1789,34
57.1974,34
57.2160,20
57.2346,27
57.2532,27
57.2717,27
57.2903,25
57.3089,28
57.3275,25
57.3460,30
57.3646,31
57.3832,25
57.4018,22
57.4203,33
57.4389,28
57.4575,32
57.4761,26
57.4946,30
57.5132,15
57.5318,22
57.5504,17
57.5689,25
57.5875,24
57.6061,34
57.6247,18
57.6433,34
57.6618,34
57.6804,28
57.6990,25
57.7176,30
57.7361,28
57.7547,42
57.7733,30
57.7919,24
57.8104,26
57.8290,23
57.8476,27
57.8662,25
57.8847,27
57.9033,38
57.9219,27
57.9405,29
57.9590,27
57.9776,30
57.9962,31
58.0148,30
58.0333,24
58.0519,30
58.0705,26
58.0891,18
58.1076,24
58.1262,23
58.1448,40
58.1634,28
58.1819,25
58.2005,26
58.2191,30
58.2377,28
58.2562,31
58.2748,23
58.2934,26
58.3120,17
58.3305,17
58.3491,28
58.3677,15
58.3863,24
58.4049,31
58.4234,17
58.4420,23
58.4606,32
58.4792,28
58.4977,23
58.5163,25
58.5349,29
58.5535,33
58.5720,27
58.5906,30
58.6092,20
58.6278,23
58.6463,28
58.6649,29
58.6835,28
58.7021,23
58.7206,31
58.7392,24
58.7578,21
58.7764,33
58.7949,20
58.8135,31
58.8321,33
58.8507,42
58.8692,24
58.8878,30
58.9064,27
58.9250,25
58.9435,20
58.9621,28
58.9807,28
58.9993,31
59.0178,30
59.0364,22
59.0550,30
59.0736,18
59.0921,34
59.1107,28
59.1293,22
59.1479,25
59.1664,28
59.1850,21
59.2036,21
59.2222,25
59.2408,21
59.2593,21
59.2779,25
59.2965,19
59.3151,28
59.3336,34
59.3522,22
59.3708,22
59.3894,29
59.4079,28
59.4265,30
59.4451,23
59.4637,25
59.4822,25
59.5008,24
59.5194,26
59.5380,34
59.5565,30
59.5751,23
59.5937,21
59.6123,32
59.6308,33
59.6494,25
59.6680,27
59.6866,25
59.7051,32
59.7237,29
59.7423,19
59.7609,37
59.7794,36
59.7980,28
59.8166,33
59.8352,22
59.8537,19
59.8723,21
59.8909,27
59.9095,24
59.9280,23
59.9466,29
59.9652,27
59.9838,18
60.0024,28
