; (content of file Y:\Sam\Apurva-07-20-2022\puck4\ML_20220718_58_SJD_4_LaB6-4min.raw)
_FILEVERSION = 3
_SAMPLE = ML_20220718_58_SJD_4_LaB6-4min
_+SAMPLE = 
_SITE = USA
_USER = Administrator
_GONIOMETER_CODE = 20
; Goniometer : D8 theta/2theta, stage : Unknown
_ATTACHMENTS_CODE = 0
_GONIOMETER_RADIUS = 200.5
_FIXED_DIVSLIT = 0.6
_FIXED_SAMPLESLIT = 0
_SOLLER_SLITS = 2
_FIXED_DETSLIT = 9.55
_MONOCHROMATOR = 0
; Incident beam monochromator : None
_SOLLER_SLITS_2 = N
_THIN_FILM = N
_BETA_FILTER = Y
_FIXED_ANTISLIT = 5.89
_ANALYZER_CODE = 0
; Received beam analyzer : None
_DATEMEASURED = "26-Jul-2022 14:40:55"
_WL_UNIT = A
_WL1 = 1.5406
_WL2 = 1.54439
_WL3 = 1.39222
_WLRATIO = 0.5
_ANODE = Cu
_V4_INF_CREATOR = XRDWizard
_V4_INF_CREATOR_VERSION = V2.9.0.22
_V4_INF_WIZARD_VERSION = V2.9.0.22
_V4_INF_WIZARD_ADDINS = V2.9.0.22
_V4_INF_WIZARD_DOCTYPE = XRD
_V4_INF_OSUSER = McQueenLab
_V4_INF_USER = Administrator
_V4_INF_SITE = USA
_V4_INF_SAMPLEID = ML_20220718_58_SJD_4_LaB6-4min

; Data for range 1
_DRIVE = COUPLED
_STEPTIME = 11.28
_STEPSIZE = 0.0185756
_STEPMODE = C
_START = 5
_THETA = 2.5
_2THETA = 5
_KHI = 0
_PHI = 0
_X = 0
_Y = 0
_Z = 0
_DETECTOR = 5
; Detector type : Unknown
_DETECTORSLIT = unkn
_AUX1 = 0
_AUX2 = 0
_AUX3 = 0
_TIMESTARTED = 15
_TEMP_RATE = -1
_TEMP_DELAY = -1
_KV = 40
_MA = 40
_RANGE_WL = 1.5406
_3DPLANE = 0
_V4_ADDITIONALDETECTOR = 257
_V4_PSD2THETA = 3.3891
_V4_PSDCHANNEL1 = 0
_V4_PSDAPERTURE = 12.68
_V4_PSDTYPE = 5
_V4_PSDFIXED = 0
_V4_COUNTERS_MASK = 4096
_V4_DRIVES_MASK = 0
_V4_ENCODERS_MASK = 0
_2THETACOUNTS = 1
; 2THETA  PSD
   5.0000        283
   5.0186        274
   5.0372        279
   5.0557        294
   5.0743        277
   5.0929        267
   5.1115        269
   5.1300        251
   5.1486        254
   5.1672        267
   5.1858        241
   5.2043        221
   5.2229        245
   5.2415        225
   5.2601        267
   5.2786        275
   5.2972        236
   5.3158        238
   5.3344        273
   5.3529        228
   5.3715        241
   5.3901        232
   5.4087        214
   5.4272        261
   5.4458        219
   5.4644        252
   5.4830        209
   5.5015        227
   5.5201        234
   5.5387        238
   5.5573        239
   5.5758        203
   5.5944        230
   5.6130        252
   5.6316        241
   5.6501        217
   5.6687        228
   5.6873        218
   5.7059        218
   5.7244        213
   5.7430        214
   5.7616        181
   5.7802        217
   5.7988        207
   5.8173        208
   5.8359        210
   5.8545        189
   5.8731        216
   5.8916        203
   5.9102        211
   5.9288        201
   5.9474        232
   5.9659        166
   5.9845        210
   6.0031        222
   6.0217        206
   6.0402        206
   6.0588        186
   6.0774        177
   6.0960        202
   6.1145        190
   6.1331        194
   6.1517        174
   6.1703        184
   6.1888        207
   6.2074        196
   6.2260        206
   6.2446        215
   6.2631        206
   6.2817        180
   6.3003        176
   6.3189        170
   6.3374        191
   6.3560        189
   6.3746        184
   6.3932        198
   6.4117        175
   6.4303        180
   6.4489        171
   6.4675        177
   6.4860        211
   6.5046        185
   6.5232        177
   6.5418        168
   6.5604        166
   6.5789        160
   6.5975        191
   6.6161        172
   6.6347        183
   6.6532        182
   6.6718        150
   6.6904        185
   6.7090        197
   6.7275        176
   6.7461        212
   6.7647        179
   6.7833        172
   6.8018        178
   6.8204        169
   6.8390        182
   6.8576        184
   6.8761        179
   6.8947        147
   6.9133        172
   6.9319        138
   6.9504        158
   6.9690        153
   6.9876        172
   7.0062        180
   7.0247        165
   7.0433        157
   7.0619        161
   7.0805        176
   7.0990        157
   7.1176        166
   7.1362        132
   7.1548        145
   7.1733        175
   7.1919        143
   7.2105        166
   7.2291        145
   7.2476        172
   7.2662        146
   7.2848        162
   7.3034        158
   7.3220        139
   7.3405        147
   7.3591        183
   7.3777        186
   7.3963        155
   7.4148        185
   7.4334        154
   7.4520        168
   7.4706        157
   7.4891        158
   7.5077        133
   7.5263        184
   7.5449        182
   7.5634        165
   7.5820        189
   7.6006        172
   7.6192        162
   7.6377        188
   7.6563        172
   7.6749        163
   7.6935        186
   7.7120        193
   7.7306        175
   7.7492        168
   7.7678        200
   7.7863        177
   7.8049        173
   7.8235        165
   7.8421        164
   7.8606        187
   7.8792        167
   7.8978        168
   7.9164        193
   7.9349        168
   7.9535        176
   7.9721        178
   7.9907        181
   8.0092        194
   8.0278        204
   8.0464        166
   8.0650        173
   8.0835        186
   8.1021        180
   8.1207        192
   8.1393        172
   8.1579        206
   8.1764        198
   8.1950        204
   8.2136        172
   8.2322        179
   8.2507        178
   8.2693        176
   8.2879        194
   8.3065        218
   8.3250        204
   8.3436        180
   8.3622        186
   8.3808        163
   8.3993        197
   8.4179        187
   8.4365        190
   8.4551        206
   8.4736        207
   8.4922        191
   8.5108        211
   8.5294        214
   8.5479        197
   8.5665        206
   8.5851        183
   8.6037        169
   8.6222        231
   8.6408        191
   8.6594        211
   8.6780        227
   8.6965        192
   8.7151        176
   8.7337        208
   8.7523        228
   8.7708        195
   8.7894        208
   8.8080        228
   8.8266        233
   8.8451        205
   8.8637        217
   8.8823        227
   8.9009        211
   8.9195        210
   8.9380        227
   8.9566        224
   8.9752        226
   8.9938        219
   9.0123        203
   9.0309        212
   9.0495        226
   9.0681        215
   9.0866        224
   9.1052        205
   9.1238        216
   9.1424        224
   9.1609        205
   9.1795        237
   9.1981        191
   9.2167        204
   9.2352        219
   9.2538        222
   9.2724        250
   9.2910        213
   9.3095        201
   9.3281        204
   9.3467        218
   9.3653        208
   9.3838        223
   9.4024        242
   9.4210        209
   9.4396        222
   9.4581        213
   9.4767        240
   9.4953        199
   9.5139        221
   9.5324        242
   9.5510        256
   9.5696        242
   9.5882        197
   9.6067        246
   9.6253        249
   9.6439        209
   9.6625        215
   9.6811        208
   9.6996        248
   9.7182        210
   9.7368        222
   9.7554        220
   9.7739        241
   9.7925        224
   9.8111        232
   9.8297        251
   9.8482        246
   9.8668        219
   9.8854        228
   9.9040        230
   9.9225        226
   9.9411        233
   9.9597        236
   9.9783        220
   9.9968        222
  10.0154        235
  10.0340        228
  10.0526        244
  10.0711        215
  10.0897        230
  10.1083        235
  10.1269        246
  10.1454        251
  10.1640        233
  10.1826        252
  10.2012        268
  10.2197        252
  10.2383        266
  10.2569        259
  10.2755        217
  10.2940        249
  10.3126        255
  10.3312        230
  10.3498        241
  10.3683        212
  10.3869        226
  10.4055        245
  10.4241        243
  10.4427        275
  10.4612        273
  10.4798        228
  10.4984        230
  10.5170        244
  10.5355        261
  10.5541        252
  10.5727        234
  10.5913        232
  10.6098        266
  10.6284        258
  10.6470        243
  10.6656        249
  10.6841        238
  10.7027        236
  10.7213        223
  10.7399        220
  10.7584        253
  10.7770        272
  10.7956        243
  10.8142        223
  10.8327        237
  10.8513        253
  10.8699        236
  10.8885        233
  10.9070        252
  10.9256        259
  10.9442        233
  10.9628        209
  10.9813        243
  10.9999        260
  11.0185        243
  11.0371        236
  11.0556        237
  11.0742        247
  11.0928        221
  11.1114        242
  11.1299        240
  11.1485        232
  11.1671        254
  11.1857        228
  11.2043        242
  11.2228        215
  11.2414        230
  11.2600        227
  11.2786        215
  11.2971        231
  11.3157        232
  11.3343        225
  11.3529        227
  11.3714        229
  11.3900        240
  11.4086        223
  11.4272        242
  11.4457        238
  11.4643        259
  11.4829        237
  11.5015        281
  11.5200        226
  11.5386        243
  11.5572        237
  11.5758        205
  11.5943        227
  11.6129        234
  11.6315        244
  11.6501        242
  11.6686        225
  11.6872        261
  11.7058        226
  11.7244        206
  11.7429        215
  11.7615        258
  11.7801        197
  11.7987        212
  11.8172        254
  11.8358        226
  11.8544        195
  11.8730        252
  11.8915        219
  11.9101        203
  11.9287        230
  11.9473        232
  11.9659        231
  11.9844        257
  12.0030        228
  12.0216        243
  12.0402        215
  12.0587        254
  12.0773        221
  12.0959        229
  12.1145        228
  12.1330        241
  12.1516        216
  12.1702        209
  12.1888        203
  12.2073        208
  12.2259        227
  12.2445        247
  12.2631        236
  12.2816        196
  12.3002        207
  12.3188        237
  12.3374        204
  12.3559        249
  12.3745        207
  12.3931        221
  12.4117        229
  12.4302        200
  12.4488        203
  12.4674        206
  12.4860        197
  12.5045        243
  12.5231        204
  12.5417        245
  12.5603        202
  12.5788        208
  12.5974        224
  12.6160        221
  12.6346        215
  12.6531        217
  12.6717        211
  12.6903        205
  12.7089        209
  12.7274        214
  12.7460        201
  12.7646        204
  12.7832        235
  12.8018        235
  12.8203        228
  12.8389        199
  12.8575        206
  12.8761        215
  12.8946        226
  12.9132        198
  12.9318        196
  12.9504        207
  12.9689        198
  12.9875        225
  13.0061        201
  13.0247        193
  13.0432        193
  13.0618        240
  13.0804        202
  13.0990        192
  13.1175        208
  13.1361        196
  13.1547        187
  13.1733        212
  13.1918        218
  13.2104        194
  13.2290        193
  13.2476        192
  13.2661        201
  13.2847        195
  13.3033        175
  13.3219        193
  13.3404        197
  13.3590        228
  13.3776        177
  13.3962        176
  13.4147        199
  13.4333        183
  13.4519        194
  13.4705        202
  13.4890        194
  13.5076        177
  13.5262        208
  13.5448        201
  13.5634        199
  13.5819        202
  13.6005        191
  13.6191        187
  13.6377        195
  13.6562        184
  13.6748        157
  13.6934        186
  13.7120        213
  13.7305        188
  13.7491        217
  13.7677        197
  13.7863        171
  13.8048        178
  13.8234        183
  13.8420        198
  13.8606        187
  13.8791        199
  13.8977        180
  13.9163        186
  13.9349        162
  13.9534        200
  13.9720        177
  13.9906        174
  14.0092        175
  14.0277        201
  14.0463        197
  14.0649        168
  14.0835        184
  14.1020        191
  14.1206        182
  14.1392        181
  14.1578        186
  14.1763        184
  14.1949        185
  14.2135        197
  14.2321        168
  14.2506        209
  14.2692        200
  14.2878        173
  14.3064        197
  14.3250        188
  14.3435        165
  14.3621        176
  14.3807        185
  14.3993        165
  14.4178        177
  14.4364        163
  14.4550        170
  14.4736        157
  14.4921        179
  14.5107        163
  14.5293        187
  14.5479        164
  14.5664        172
  14.5850        162
  14.6036        182
  14.6222        179
  14.6407        192
  14.6593        148
  14.6779        174
  14.6965        172
  14.7150        165
  14.7336        202
  14.7522        184
  14.7708        178
  14.7893        159
  14.8079        171
  14.8265        151
  14.8451        157
  14.8636        154
  14.8822        148
  14.9008        152
  14.9194        176
  14.9379        181
  14.9565        166
  14.9751        188
  14.9937        167
  15.0122        164
  15.0308        195
  15.0494        157
  15.0680        154
  15.0866        152
  15.1051        161
  15.1237        172
  15.1423        155
  15.1609        175
  15.1794        190
  15.1980        155
  15.2166        162
  15.2352        174
  15.2537        146
  15.2723        166
  15.2909        160
  15.3095        181
  15.3280        183
  15.3466        175
  15.3652        166
  15.3838        170
  15.4023        164
  15.4209        151
  15.4395        155
  15.4581        185
  15.4766        156
  15.4952        168
  15.5138        178
  15.5324        182
  15.5509        156
  15.5695        161
  15.5881        141
  15.6067        160
  15.6252        173
  15.6438        168
  15.6624        183
  15.6810        167
  15.6995        134
  15.7181        169
  15.7367        172
  15.7553        173
  15.7738        128
  15.7924        166
  15.8110        179
  15.8296        179
  15.8482        149
  15.8667        155
  15.8853        177
  15.9039        174
  15.9225        141
  15.9410        142
  15.9596        130
  15.9782        189
  15.9968        161
  16.0153        167
  16.0339        184
  16.0525        189
  16.0711        159
  16.0896        170
  16.1082        181
  16.1268        178
  16.1454        160
  16.1639        160
  16.1825        180
  16.2011        156
  16.2197        161
  16.2382        157
  16.2568        152
  16.2754        151
  16.2940        172
  16.3125        148
  16.3311        164
  16.3497        162
  16.3683        163
  16.3868        177
  16.4054        168
  16.4240        163
  16.4426        147
  16.4611        168
  16.4797        149
  16.4983        175
  16.5169        178
  16.5354        172
  16.5540        148
  16.5726        159
  16.5912        163
  16.6097        173
  16.6283        162
  16.6469        171
  16.6655        152
  16.6841        149
  16.7026        169
  16.7212        179
  16.7398        158
  16.7584        165
  16.7769        161
  16.7955        147
  16.8141        167
  16.8327        159
  16.8512        153
  16.8698        152
  16.8884        160
  16.9070        165
  16.9255        160
  16.9441        158
  16.9627        166
  16.9813        176
  16.9998        149
  17.0184        166
  17.0370        162
  17.0556        165
  17.0741        154
  17.0927        182
  17.1113        159
  17.1299        150
  17.1484        167
  17.1670        165
  17.1856        170
  17.2042        177
  17.2227        155
  17.2413        177
  17.2599        162
  17.2785        184
  17.2970        161
  17.3156        158
  17.3342        176
  17.3528        150
  17.3713        173
  17.3899        152
  17.4085        178
  17.4271        156
  17.4457        167
  17.4642        153
  17.4828        170
  17.5014        159
  17.5200        140
  17.5385        152
  17.5571        157
  17.5757        153
  17.5943        184
  17.6128        158
  17.6314        151
  17.6500        171
  17.6686        174
  17.6871        185
  17.7057        186
  17.7243        171
  17.7429        178
  17.7614        158
  17.7800        161
  17.7986        158
  17.8172        165
  17.8357        149
  17.8543        169
  17.8729        185
  17.8915        184
  17.9100        155
  17.9286        155
  17.9472        177
  17.9658        149
  17.9843        163
  18.0029        162
  18.0215        159
  18.0401        159
  18.0586        165
  18.0772        179
  18.0958        163
  18.1144        179
  18.1329        171
  18.1515        174
  18.1701        171
  18.1887        183
  18.2073        165
  18.2258        159
  18.2444        157
  18.2630        155
  18.2816        158
  18.3001        153
  18.3187        173
  18.3373        164
  18.3559        173
  18.3744        169
  18.3930        172
  18.4116        168
  18.4302        183
  18.4487        180
  18.4673        154
  18.4859        156
  18.5045        173
  18.5230        153
  18.5416        159
  18.5602        176
  18.5788        154
  18.5973        183
  18.6159        185
  18.6345        149
  18.6531        182
  18.6716        181
  18.6902        194
  18.7088        160
  18.7274        172
  18.7459        142
  18.7645        166
  18.7831        158
  18.8017        162
  18.8202        150
  18.8388        157
  18.8574        179
  18.8760        154
  18.8945        176
  18.9131        185
  18.9317        169
  18.9503        169
  18.9689        202
  18.9874        160
  19.0060        160
  19.0246        148
  19.0432        191
  19.0617        152
  19.0803        173
  19.0989        192
  19.1175        164
  19.1360        169
  19.1546        202
  19.1732        186
  19.1918        177
  19.2103        204
  19.2289        151
  19.2475        180
  19.2661        161
  19.2846        160
  19.3032        169
  19.3218        179
  19.3404        165
  19.3589        193
  19.3775        155
  19.3961        200
  19.4147        174
  19.4332        159
  19.4518        177
  19.4704        163
  19.4890        144
  19.5075        160
  19.5261        180
  19.5447        164
  19.5633        158
  19.5818        138
  19.6004        167
  19.6190        197
  19.6376        154
  19.6561        162
  19.6747        144
  19.6933        183
  19.7119        195
  19.7305        185
  19.7490        185
  19.7676        177
  19.7862        194
  19.8048        191
  19.8233        195
  19.8419        189
  19.8605        166
  19.8791        179
  19.8976        201
  19.9162        183
  19.9348        162
  19.9534        167
  19.9719        186
  19.9905        194
  20.0091        183
  20.0277        170
  20.0462        195
  20.0648        184
  20.0834        192
  20.1020        181
  20.1205        158
  20.1391        188
  20.1577        192
  20.1763        191
  20.1948        184
  20.2134        201
  20.2320        205
  20.2506        198
  20.2691        191
  20.2877        178
  20.3063        177
  20.3249        171
  20.3434        189
  20.3620        189
  20.3806        183
  20.3992        188
  20.4177        192
  20.4363        215
  20.4549        179
  20.4735        166
  20.4921        204
  20.5106        207
  20.5292        182
  20.5478        174
  20.5664        190
  20.5849        184
  20.6035        170
  20.6221        179
  20.6407        199
  20.6592        176
  20.6778        175
  20.6964        186
  20.7150        172
  20.7335        195
  20.7521        183
  20.7707        196
  20.7893        175
  20.8078        203
  20.8264        183
  20.8450        207
  20.8636        198
  20.8821        211
  20.9007        202
  20.9193        213
  20.9379        216
  20.9564        189
  20.9750        223
  20.9936        203
  21.0122        206
  21.0307        204
  21.0493        192
  21.0679        201
  21.0865        216
  21.1050        240
  21.1236        205
  21.1422        203
  21.1608        231
  21.1793        281
  21.1979        298
  21.2165        307
  21.2351        311
  21.2537        291
  21.2722        296
  21.2908        310
  21.3094        342
  21.3280        401
  21.3465        517
  21.3651        562
  21.3837        441
  21.4023        363
  21.4208        363
  21.4394        280
  21.4580        232
  21.4766        226
  21.4951        217
  21.5137        207
  21.5323        177
  21.5509        216
  21.5694        227
  21.5880        203
  21.6066        201
  21.6252        211
  21.6437        193
  21.6623        190
  21.6809        197
  21.6995        194
  21.7180        199
  21.7366        219
  21.7552        178
  21.7738        195
  21.7923        180
  21.8109        207
  21.8295        214
  21.8481        213
  21.8666        168
  21.8852        212
  21.9038        190
  21.9224        209
  21.9409        194
  21.9595        195
  21.9781        175
  21.9967        184
  22.0152        222
  22.0338        192
  22.0524        187
  22.0710        217
  22.0896        215
  22.1081        208
  22.1267        202
  22.1453        194
  22.1639        212
  22.1824        205
  22.2010        210
  22.2196        196
  22.2382        199
  22.2567        196
  22.2753        183
  22.2939        185
  22.3125        196
  22.3310        190
  22.3496        215
  22.3682        185
  22.3868        184
  22.4053        189
  22.4239        200
  22.4425        186
  22.4611        213
  22.4796        183
  22.4982        191
  22.5168        203
  22.5354        196
  22.5539        186
  22.5725        179
  22.5911        187
  22.6097        194
  22.6282        201
  22.6468        193
  22.6654        202
  22.6840        187
  22.7025        214
  22.7211        183
  22.7397        183
  22.7583        199
  22.7768        185
  22.7954        201
  22.8140        215
  22.8326        180
  22.8512        198
  22.8697        193
  22.8883        213
  22.9069        198
  22.9255        205
  22.9440        205
  22.9626        219
  22.9812        184
  22.9998        186
  23.0183        209
  23.0369        199
  23.0555        188
  23.0741        215
  23.0926        214
  23.1112        212
  23.1298        201
  23.1484        232
  23.1669        194
  23.1855        208
  23.2041        215
  23.2227        222
  23.2412        212
  23.2598        216
  23.2784        206
  23.2970        201
  23.3155        207
  23.3341        199
  23.3527        181
  23.3713        199
  23.3898        215
  23.4084        209
  23.4270        209
  23.4456        213
  23.4641        217
  23.4827        204
  23.5013        200
  23.5199        194
  23.5384        220
  23.5570        205
  23.5756        216
  23.5942        217
  23.6128        201
  23.6313        212
  23.6499        235
  23.6685        199
  23.6871        187
  23.7056        191
  23.7242        207
  23.7428        201
  23.7614        217
  23.7799        181
  23.7985        178
  23.8171        207
  23.8357        181
  23.8542        209
  23.8728        182
  23.8914        215
  23.9100        204
  23.9285        203
  23.9471        199
  23.9657        199
  23.9843        195
  24.0028        222
  24.0214        217
  24.0400        191
  24.0586        203
  24.0771        199
  24.0957        195
  24.1143        211
  24.1329        194
  24.1514        207
  24.1700        236
  24.1886        204
  24.2072        254
  24.2257        213
  24.2443        231
  24.2629        230
  24.2815        200
  24.3000        241
  24.3186        218
  24.3372        230
  24.3558        218
  24.3744        194
  24.3929        217
  24.4115        204
  24.4301        213
  24.4487        198
  24.4672        189
  24.4858        185
  24.5044        209
  24.5230        205
  24.5415        187
  24.5601        210
  24.5787        210
  24.5973        205
  24.6158        221
  24.6344        223
  24.6530        225
  24.6716        176
  24.6901        175
  24.7087        209
  24.7273        221
  24.7459        197
  24.7644        173
  24.7830        194
  24.8016        191
  24.8202        214
  24.8387        230
  24.8573        182
  24.8759        174
  24.8945        165
  24.9130        214
  24.9316        182
  24.9502        205
  24.9688        188
  24.9873        167
  25.0059        231
  25.0245        193
  25.0431        209
  25.0616        191
  25.0802        200
  25.0988        215
  25.1174        192
  25.1360        221
  25.1545        189
  25.1731        207
  25.1917        203
  25.2103        205
  25.2288        179
  25.2474        178
  25.2660        193
  25.2846        201
  25.3031        191
  25.3217        204
  25.3403        193
  25.3589        181
  25.3774        183
  25.3960        185
  25.4146        197
  25.4332        173
  25.4517        196
  25.4703        170
  25.4889        212
  25.5075        180
  25.5260        190
  25.5446        195
  25.5632        188
  25.5818        195
  25.6003        194
  25.6189        180
  25.6375        174
  25.6561        191
  25.6746        203
  25.6932        180
  25.7118        219
  25.7304        190
  25.7489        173
  25.7675        195
  25.7861        183
  25.8047        170
  25.8232        200
  25.8418        188
  25.8604        192
  25.8790        191
  25.8976        191
  25.9161        193
  25.9347        197
  25.9533        203
  25.9719        192
  25.9904        196
  26.0090        227
  26.0276        197
  26.0462        221
  26.0647        177
  26.0833        200
  26.1019        192
  26.1205        198
  26.1390        183
  26.1576        204
  26.1762        174
  26.1948        180
  26.2133        184
  26.2319        191
  26.2505        185
  26.2691        190
  26.2876        213
  26.3062        178
  26.3248        181
  26.3434        180
  26.3619        168
  26.3805        203
  26.3991        231
  26.4177        175
  26.4362        170
  26.4548        193
  26.4734        164
  26.4920        167
  26.5105        190
  26.5291        183
  26.5477        169
  26.5663        191
  26.5848        188
  26.6034        210
  26.6220        175
  26.6406        169
  26.6591        169
  26.6777        190
  26.6963        172
  26.7149        180
  26.7335        189
  26.7520        188
  26.7706        203
  26.7892        193
  26.8078        199
  26.8263        163
  26.8449        195
  26.8635        207
  26.8821        193
  26.9006        195
  26.9192        214
  26.9378        181
  26.9564        198
  26.9749        192
  26.9935        189
  27.0121        197
  27.0307        169
  27.0492        183
  27.0678        175
  27.0864        180
  27.1050        195
  27.1235        204
  27.1421        222
  27.1607        195
  27.1793        235
  27.1978        247
  27.2164        245
  27.2350        248
  27.2536        237
  27.2721        218
  27.2907        231
  27.3093        188
  27.3279        201
  27.3464        199
  27.3650        202
  27.3836        187
  27.4022        194
  27.4207        200
  27.4393        206
  27.4579        174
  27.4765        195
  27.4951        173
  27.5136        200
  27.5322        207
  27.5508        177
  27.5694        183
  27.5879        194
  27.6065        180
  27.6251        180
  27.6437        188
  27.6622        168
  27.6808        165
  27.6994        183
  27.7180        172
  27.7365        177
  27.7551        166
  27.7737        184
  27.7923        194
  27.8108        153
  27.8294        167
  27.8480        182
  27.8666        179
  27.8851        174
  27.9037        175
  27.9223        172
  27.9409        165
  27.9594        186
  27.9780        189
  27.9966        178
  28.0152        173
  28.0337        166
  28.0523        180
  28.0709        200
  28.0895        182
  28.1080        168
  28.1266        186
  28.1452        157
  28.1638        177
  28.1823        183
  28.2009        185
  28.2195        174
  28.2381        154
  28.2567        173
  28.2752        179
  28.2938        192
  28.3124        162
  28.3310        159
  28.3495        178
  28.3681        174
  28.3867        165
  28.4053        186
  28.4238        169
  28.4424        172
  28.4610        164
  28.4796        163
  28.4981        142
  28.5167        186
  28.5353        160
  28.5539        154
  28.5724        176
  28.5910        159
  28.6096        182
  28.6282        163
  28.6467        155
  28.6653        170
  28.6839        140
  28.7025        157
  28.7210        152
  28.7396        178
  28.7582        133
  28.7768        154
  28.7953        163
  28.8139        181
  28.8325        184
  28.8511        174
  28.8696        154
  28.8882        163
  28.9068        171
  28.9254        137
  28.9439        145
  28.9625        160
  28.9811        182
  28.9997        170
  29.0183        165
  29.0368        163
  29.0554        161
  29.0740        153
  29.0926        166
  29.1111        168
  29.1297        178
  29.1483        163
  29.1669        183
  29.1854        176
  29.2040        160
  29.2226        181
  29.2412        157
  29.2597        175
  29.2783        151
  29.2969        178
  29.3155        153
  29.3340        177
  29.3526        145
  29.3712        144
  29.3898        156
  29.4083        160
  29.4269        155
  29.4455        162
  29.4641        153
  29.4826        159
  29.5012        181
  29.5198        153
  29.5384        172
  29.5569        167
  29.5755        166
  29.5941        169
  29.6127        163
  29.6312        173
  29.6498        182
  29.6684        158
  29.6870        170
  29.7055        170
  29.7241        152
  29.7427        190
  29.7613        155
  29.7799        157
  29.7984        147
  29.8170        144
  29.8356        153
  29.8542        137
  29.8727        157
  29.8913        145
  29.9099        163
  29.9285        130
  29.9470        147
  29.9656        134
  29.9842        157
  30.0028        161
  30.0213        172
  30.0399        154
  30.0585        157
  30.0771        163
  30.0956        139
  30.1142        144
  30.1328        170
  30.1514        149
  30.1699        149
  30.1885        172
  30.2071        151
  30.2257        163
  30.2442        147
  30.2628        183
  30.2814        171
  30.3000        196
  30.3185        182
  30.3371        183
  30.3557        286
  30.3743        331
  30.3928        317
  30.4114        287
  30.4300        239
  30.4486        275
  30.4671        276
  30.4857        214
  30.5043        165
  30.5229        158
  30.5415        172
  30.5600        140
  30.5786        155
  30.5972        165
  30.6158        149
  30.6343        155
  30.6529        142
  30.6715        145
  30.6901        152
  30.7086        162
  30.7272        155
  30.7458        152
  30.7644        161
  30.7829        155
  30.8015        149
  30.8201        131
  30.8387        147
  30.8572        142
  30.8758        156
  30.8944        141
  30.9130        138
  30.9315        146
  30.9501        161
  30.9687        137
  30.9873        149
  31.0058        136
  31.0244        148
  31.0430        157
  31.0616        154
  31.0801        135
  31.0987        163
  31.1173        147
  31.1359        140
  31.1544        124
  31.1730        124
  31.1916        155
  31.2102        151
  31.2287        139
  31.2473        124
  31.2659        145
  31.2845        126
  31.3030        145
  31.3216        146
  31.3402        133
  31.3588        123
  31.3774        141
  31.3959        136
  31.4145        156
  31.4331        142
  31.4517        131
  31.4702        121
  31.4888        131
  31.5074        126
  31.5260        144
  31.5445        131
  31.5631        145
  31.5817        126
  31.6003        145
  31.6188        143
  31.6374        132
  31.6560        141
  31.6746        116
  31.6931        152
  31.7117        140
  31.7303        131
  31.7489        150
  31.7674        133
  31.7860        119
  31.8046        147
  31.8232        136
  31.8417        140
  31.8603        148
  31.8789        125
  31.8975        111
  31.9160        132
  31.9346        124
  31.9532        151
  31.9718        130
  31.9903        135
  32.0089        134
  32.0275        120
  32.0461        135
  32.0646        127
  32.0832        134
  32.1018        125
  32.1204        132
  32.1390        123
  32.1575        146
  32.1761        131
  32.1947        133
  32.2133        121
  32.2318        137
  32.2504        134
  32.2690        144
  32.2876        116
  32.3061        138
  32.3247        140
  32.3433        136
  32.3619        147
  32.3804        121
  32.3990        139
  32.4176        136
  32.4362        143
  32.4547        147
  32.4733        151
  32.4919        143
  32.5105        145
  32.5290        159
  32.5476        166
  32.5662        129
  32.5848        129
  32.6033        131
  32.6219        133
  32.6405        131
  32.6591        135
  32.6776        124
  32.6962        126
  32.7148        118
  32.7334        132
  32.7519        134
  32.7705        128
  32.7891        124
  32.8077        117
  32.8262        144
  32.8448        147
  32.8634        129
  32.8820        122
  32.9006        125
  32.9191        124
  32.9377        118
  32.9563        145
  32.9749        131
  32.9934         98
  33.0120        140
  33.0306        122
  33.0492        151
  33.0677        118
  33.0863        141
  33.1049        126
  33.1235        127
  33.1420        132
  33.1606        108
  33.1792        125
  33.1978        130
  33.2163        119
  33.2349        118
  33.2535        114
  33.2721        119
  33.2906        113
  33.3092        130
  33.3278        123
  33.3464        133
  33.3649        126
  33.3835        126
  33.4021        112
  33.4207        118
  33.4392        146
  33.4578        124
  33.4764        122
  33.4950        124
  33.5135        115
  33.5321        138
  33.5507        108
  33.5693        116
  33.5878        136
  33.6064         85
  33.6250        124
  33.6436        117
  33.6622        101
  33.6807        135
  33.6993        127
  33.7179        128
  33.7365        122
  33.7550        105
  33.7736        115
  33.7922        120
  33.8108        119
  33.8293        110
  33.8479        116
  33.8665        113
  33.8851        116
  33.9036        118
  33.9222        106
  33.9408        107
  33.9594        100
  33.9779        104
  33.9965        130
  34.0151        122
  34.0337        116
  34.0522        130
  34.0708        113
  34.0894        111
  34.1080        125
  34.1265        100
  34.1451        120
  34.1637        105
  34.1823        106
  34.2008        118
  34.2194        108
  34.2380         94
  34.2566        109
  34.2751        105
  34.2937        116
  34.3123        113
  34.3309        126
  34.3494        105
  34.3680        105
  34.3866        116
  34.4052        114
  34.4238        120
  34.4423        110
  34.4609        127
  34.4795        121
  34.4981        128
  34.5166        128
  34.5352        131
  34.5538        133
  34.5724        110
  34.5909        108
  34.6095        133
  34.6281        125
  34.6467        125
  34.6652        105
  34.6838        113
  34.7024        119
  34.7210        159
  34.7395        135
  34.7581        155
  34.7767        163
  34.7953        144
  34.8138        154
  34.8324        130
  34.8510        137
  34.8696        129
  34.8881        146
  34.9067        128
  34.9253        116
  34.9439        114
  34.9624        121
  34.9810        104
  34.9996        117
  35.0182        114
  35.0367         95
  35.0553        102
  35.0739        116
  35.0925         94
  35.1110        100
  35.1296         86
  35.1482        101
  35.1668         74
  35.1854        112
  35.2039        115
  35.2225        107
  35.2411        102
  35.2597         99
  35.2782        114
  35.2968        106
  35.3154        105
  35.3340         96
  35.3525        106
  35.3711         88
  35.3897        110
  35.4083        110
  35.4268        107
  35.4454        107
  35.4640         79
  35.4826         95
  35.5011         94
  35.5197        112
  35.5383        103
  35.5569         97
  35.5754        107
  35.5940        106
  35.6126         97
  35.6312         90
  35.6497         90
  35.6683        103
  35.6869         96
  35.7055        105
  35.7240        122
  35.7426        105
  35.7612         77
  35.7798        106
  35.7983         91
  35.8169         87
  35.8355         85
  35.8541        101
  35.8726        132
  35.8912         87
  35.9098         80
  35.9284        101
  35.9469        100
  35.9655         85
  35.9841         99
  36.0027         89
  36.0213         96
  36.0398        109
  36.0584        107
  36.0770         91
  36.0956        100
  36.1141         88
  36.1327         95
  36.1513        103
  36.1699        101
  36.1884         88
  36.2070         96
  36.2256         86
  36.2442         98
  36.2627         79
  36.2813        105
  36.2999        102
  36.3185         94
  36.3370         83
  36.3556        101
  36.3742         92
  36.3928        114
  36.4113        107
  36.4299         94
  36.4485        103
  36.4671         87
  36.4856        102
  36.5042        108
  36.5228         83
  36.5414         97
  36.5599         97
  36.5785         90
  36.5971         98
  36.6157         70
  36.6342         99
  36.6528         86
  36.6714        113
  36.6900         97
  36.7085        103
  36.7271         88
  36.7457         98
  36.7643        104
  36.7829         96
  36.8014         89
  36.8200         87
  36.8386         76
  36.8572         74
  36.8757         92
  36.8943         91
  36.9129         78
  36.9315         88
  36.9500         85
  36.9686         86
  36.9872         84
  37.0058         88
  37.0243        101
  37.0429         90
  37.0615         77
  37.0801         91
  37.0986        103
  37.1172         87
  37.1358        103
  37.1544         92
  37.1729        107
  37.1915         96
  37.2101         88
  37.2287        100
  37.2472         90
  37.2658         79
  37.2844         93
  37.3030         95
  37.3215        101
  37.3401         93
  37.3587         83
  37.3773         95
  37.3958        103
  37.4144        124
  37.4330        159
  37.4516        165
  37.4701        128
  37.4887        123
  37.5073        117
  37.5259        133
  37.5445        131
  37.5630        119
  37.5816        106
  37.6002         99
  37.6188         86
  37.6373         84
  37.6559         81
  37.6745         99
  37.6931         77
  37.7116        103
  37.7302         83
  37.7488        103
  37.7674         91
  37.7859         90
  37.8045         74
  37.8231         88
  37.8417         86
  37.8602         99
  37.8788         82
  37.8974         75
  37.9160         96
  37.9345         86
  37.9531         95
  37.9717         79
  37.9903         82
  38.0088         73
  38.0274         74
  38.0460         74
  38.0646         98
  38.0831         76
  38.1017         87
  38.1203         90
  38.1389         99
  38.1574         88
  38.1760         81
  38.1946         89
  38.2132         88
  38.2317         97
  38.2503         86
  38.2689         88
  38.2875         86
  38.3061         97
  38.3246         67
  38.3432         92
  38.3618         98
  38.3804         82
  38.3989         75
  38.4175         84
  38.4361         74
  38.4547         66
  38.4732         90
  38.4918         83
  38.5104         91
  38.5290         95
  38.5475         91
  38.5661         74
  38.5847         86
  38.6033         92
  38.6218         75
  38.6404         81
  38.6590         83
  38.6776         87
  38.6961         83
  38.7147         77
  38.7333         82
  38.7519         77
  38.7704         90
  38.7890         86
  38.8076         88
  38.8262         90
  38.8447         81
  38.8633         83
  38.8819         83
  38.9005         95
  38.9190         87
  38.9376         95
  38.9562         82
  38.9748        108
  38.9933         73
  39.0119         73
  39.0305         70
  39.0491         74
  39.0677         85
  39.0862         82
  39.1048         82
  39.1234         78
  39.1420         81
  39.1605         88
  39.1791         84
  39.1977         90
  39.2163         91
  39.2348         79
  39.2534         68
  39.2720         91
  39.2906         89
  39.3091         88
  39.3277         77
  39.3463         78
  39.3649         90
  39.3834         68
  39.4020         95
  39.4206         72
  39.4392         76
  39.4577         86
  39.4763         82
  39.4949         81
  39.5135         75
  39.5320         77
  39.5506         71
  39.5692         83
  39.5878         75
  39.6063         80
  39.6249         83
  39.6435         95
  39.6621         72
  39.6806         74
  39.6992         79
  39.7178         68
  39.7364         77
  39.7549         89
  39.7735         79
  39.7921         86
  39.8107         66
  39.8293         97
  39.8478         76
  39.8664         61
  39.8850         64
  39.9036         80
  39.9221         71
  39.9407         87
  39.9593         83
  39.9779         67
  39.9964         88
  40.0150         89
  40.0336         84
  40.0522         90
  40.0707         81
  40.0893         64
  40.1079         73
  40.1265         80
  40.1450         83
  40.1636         85
  40.1822         76
  40.2008         73
  40.2193         72
  40.2379         59
  40.2565         86
  40.2751         79
  40.2936         77
  40.3122         91
  40.3308         93
  40.3494         85
  40.3679         74
  40.3865         67
  40.4051         91
  40.4237         94
  40.4422         79
  40.4608         80
  40.4794         75
  40.4980         67
  40.5165         77
  40.5351         70
  40.5537         76
  40.5723         82
  40.5908         80
  40.6094         85
  40.6280         85
  40.6466         69
  40.6652         74
  40.6837         83
  40.7023         85
  40.7209         61
  40.7395         85
  40.7580         73
  40.7766         92
  40.7952         77
  40.8138         72
  40.8323         86
  40.8509         66
  40.8695         84
  40.8881         79
  40.9066         80
  40.9252         82
  40.9438         79
  40.9624         78
  40.9809        106
  40.9995         83
  41.0181         85
  41.0367         97
  41.0552         72
  41.0738         82
  41.0924         82
  41.1110         73
  41.1295         81
  41.1481         88
  41.1667         75
  41.1853         92
  41.2038         68
  41.2224         65
  41.2410         82
  41.2596         81
  41.2781         90
  41.2967         80
  41.3153         82
  41.3339         77
  41.3524         63
  41.3710         73
  41.3896         83
  41.4082         77
  41.4268         77
  41.4453         62
  41.4639         81
  41.4825         89
  41.5011         85
  41.5196         65
  41.5382         73
  41.5568         59
  41.5754         76
  41.5939         62
  41.6125         82
  41.6311         74
  41.6497         65
  41.6682         73
  41.6868         68
  41.7054         80
  41.7240         62
  41.7425         78
  41.7611         82
  41.7797         66
  41.7983         55
  41.8168         72
  41.8354         78
  41.8540         63
  41.8726         78
  41.8911         69
  41.9097         72
  41.9283         79
  41.9469         83
  41.9654         75
  41.9840         75
  42.0026         96
  42.0212         78
  42.0397         62
  42.0583         78
  42.0769         77
  42.0955         80
  42.1140         60
  42.1326         62
  42.1512         74
  42.1698         75
  42.1884         84
  42.2069         78
  42.2255         77
  42.2441         72
  42.2627         73
  42.2812         75
  42.2998         87
  42.3184         73
  42.3370         72
  42.3555         74
  42.3741         78
  42.3927         66
  42.4113         70
  42.4298         73
  42.4484         65
  42.4670         75
  42.4856         67
  42.5041         82
  42.5227         67
  42.5413         65
  42.5599         81
  42.5784         64
  42.5970         78
  42.6156         73
  42.6342         75
  42.6527         63
  42.6713         64
  42.6899         80
  42.7085         84
  42.7270         68
  42.7456         69
  42.7642         74
  42.7828         73
  42.8013         68
  42.8199         66
  42.8385         69
  42.8571         80
  42.8756         82
  42.8942         74
  42.9128         80
  42.9314         68
  42.9500         72
  42.9685         92
  42.9871         75
  43.0057         76
  43.0243         62
  43.0428         79
  43.0614         66
  43.0800         86
  43.0986         71
  43.1171         67
  43.1357         91
  43.1543         82
  43.1729         91
  43.1914         81
  43.2100         87
  43.2286         97
  43.2472        105
  43.2657         88
  43.2843        103
  43.3029         79
  43.3215         93
  43.3400         85
  43.3586         90
  43.3772         84
  43.3958         82
  43.4143         68
  43.4329         95
  43.4515         89
  43.4701         98
  43.4886        129
  43.5072        152
  43.5258        138
  43.5444         98
  43.5629         88
  43.5815         96
  43.6001        109
  43.6187        115
  43.6372         94
  43.6558         89
  43.6744         86
  43.6930         80
  43.7116         76
  43.7301         86
  43.7487         77
  43.7673         72
  43.7859         72
  43.8044         58
  43.8230         70
  43.8416         62
  43.8602         83
  43.8787         70
  43.8973         73
  43.9159         84
  43.9345         78
  43.9530         81
  43.9716         76
  43.9902         66
  44.0088         73
  44.0273         69
  44.0459         90
  44.0645         78
  44.0831         83
  44.1016         72
  44.1202         75
  44.1388         78
  44.1574         72
  44.1759         72
  44.1945         69
  44.2131         79
  44.2317         60
  44.2502         63
  44.2688         83
  44.2874         67
  44.3060         67
  44.3245         85
  44.3431         83
  44.3617         72
  44.3803         69
  44.3988         67
  44.4174         73
  44.4360         69
  44.4546         77
  44.4732         83
  44.4917         59
  44.5103         79
  44.5289         67
  44.5475         77
  44.5660         78
  44.5846         78
  44.6032         76
  44.6218         83
  44.6403         68
  44.6589         85
  44.6775         78
  44.6961         89
  44.7146         86
  44.7332         91
  44.7518         80
  44.7704         77
  44.7889         70
  44.8075         57
  44.8261         69
  44.8447         70
  44.8632         56
  44.8818         65
  44.9004         76
  44.9190         72
  44.9375         82
  44.9561         87
  44.9747         77
  44.9933         71
  45.0118         82
  45.0304         77
  45.0490         72
  45.0676         70
  45.0861         63
  45.1047         64
  45.1233         64
  45.1419         62
  45.1604         77
  45.1790         72
  45.1976         71
  45.2162         55
  45.2347         81
  45.2533         62
  45.2719         61
  45.2905         63
  45.3091         73
  45.3276         70
  45.3462         93
  45.3648         78
  45.3834         72
  45.4019         53
  45.4205         62
  45.4391         72
  45.4577         75
  45.4762         82
  45.4948         65
  45.5134         70
  45.5320         53
  45.5505         66
  45.5691         71
  45.5877         81
  45.6063         69
  45.6248         65
  45.6434         64
  45.6620         63
  45.6806         51
  45.6991         77
  45.7177         69
  45.7363         73
  45.7549         62
  45.7734         56
  45.7920         64
  45.8106         61
  45.8292         72
  45.8477         72
  45.8663         62
  45.8849         65
  45.9035         70
  45.9220         78
  45.9406         71
  45.9592         75
  45.9778         69
  45.9963         65
  46.0149         48
  46.0335         61
  46.0521         62
  46.0707         51
  46.0892         70
  46.1078         67
  46.1264         76
  46.1450         70
  46.1635         64
  46.1821         45
  46.2007         74
  46.2193         64
  46.2378         65
  46.2564         65
  46.2750         63
  46.2936         72
  46.3121         73
  46.3307         57
  46.3493         75
  46.3679         56
  46.3864         67
  46.4050         62
  46.4236         57
  46.4422         67
  46.4607         69
  46.4793         69
  46.4979         64
  46.5165         55
  46.5350         61
  46.5536         61
  46.5722         68
  46.5908         67
  46.6093         63
  46.6279         62
  46.6465         65
  46.6651         74
  46.6836         64
  46.7022         63
  46.7208         58
  46.7394         60
  46.7579         74
  46.7765         60
  46.7951         67
  46.8137         59
  46.8323         58
  46.8508         55
  46.8694         72
  46.8880         72
  46.9066         54
  46.9251         77
  46.9437         49
  46.9623         55
  46.9809         71
  46.9994         69
  47.0180         68
  47.0366         74
  47.0552         50
  47.0737         66
  47.0923         59
  47.1109         56
  47.1295         63
  47.1480         57
  47.1666         57
  47.1852         63
  47.2038         76
  47.2223         59
  47.2409         63
  47.2595         63
  47.2781         68
  47.2966         64
  47.3152         78
  47.3338         60
  47.3524         77
  47.3709         68
  47.3895         63
  47.4081         62
  47.4267         64
  47.4452         61
  47.4638         58
  47.4824         59
  47.5010         65
  47.5195         52
  47.5381         66
  47.5567         64
  47.5753         58
  47.5939         67
  47.6124         53
  47.6310         64
  47.6496         49
  47.6682         62
  47.6867         62
  47.7053         77
  47.7239         57
  47.7425         77
  47.7610         76
  47.7796         71
  47.7982         69
  47.8168         69
  47.8353         38
  47.8539         57
  47.8725         62
  47.8911         67
  47.9096         63
  47.9282         59
  47.9468         60
  47.9654         60
  47.9839         58
  48.0025         60
  48.0211         59
  48.0397         75
  48.0582         76
  48.0768         61
  48.0954         61
  48.1140         67
  48.1325         56
  48.1511         54
  48.1697         61
  48.1883         61
  48.2068         62
  48.2254         73
  48.2440         64
  48.2626         56
  48.2811         69
  48.2997         66
  48.3183         68
  48.3369         43
  48.3555         69
  48.3740         67
  48.3926         71
  48.4112         62
  48.4298         43
  48.4483         57
  48.4669         72
  48.4855         72
  48.5041         58
  48.5226         63
  48.5412         65
  48.5598         69
  48.5784         64
  48.5969         55
  48.6155         63
  48.6341         58
  48.6527         82
  48.6712         65
  48.6898         71
  48.7084         63
  48.7270         63
  48.7455         62
  48.7641         54
  48.7827         74
  48.8013         49
  48.8198         66
  48.8384         65
  48.8570         65
  48.8756         70
  48.8941         82
  48.9127         84
  48.9313        107
  48.9499        122
  48.9684        132
  48.9870        100
  49.0056         79
  49.0242         77
  49.0427         59
  49.0613         83
  49.0799         79
  49.0985         73
  49.1171         79
  49.1356         81
  49.1542         56
  49.1728         67
  49.1914         61
  49.2099         55
  49.2285         61
  49.2471         66
  49.2657         60
  49.2842         66
  49.3028         51
  49.3214         69
  49.3400         69
  49.3585         63
  49.3771         71
  49.3957         53
  49.4143         57
  49.4328         72
  49.4514         64
  49.4700         65
  49.4886         57
  49.5071         65
  49.5257         77
  49.5443         56
  49.5629         57
  49.5814         71
  49.6000         70
  49.6186         39
  49.6372         67
  49.6557         63
  49.6743         61
  49.6929         61
  49.7115         64
  49.7300         67
  49.7486         66
  49.7672         60
  49.7858         61
  49.8043         62
  49.8229         54
  49.8415         57
  49.8601         65
  49.8786         54
  49.8972         59
  49.9158         63
  49.9344         53
  49.9530         72
  49.9715         50
  49.9901         61
  50.0087         52
  50.0273         73
  50.0458         56
  50.0644         59
  50.0830         64
  50.1016         72
  50.1201         56
  50.1387         71
  50.1573         74
  50.1759         63
  50.1944         44
  50.2130         69
  50.2316         75
  50.2502         68
  50.2687         54
  50.2873         56
  50.3059         73
  50.3245         51
  50.3430         61
  50.3616         70
  50.3802         55
  50.3988         70
  50.4173         52
  50.4359         53
  50.4545         60
  50.4731         56
  50.4916         55
  50.5102         52
  50.5288         56
  50.5474         60
  50.5659         58
  50.5845         56
  50.6031         70
  50.6217         58
  50.6402         53
  50.6588         75
  50.6774         46
  50.6960         47
  50.7146         44
  50.7331         65
  50.7517         60
  50.7703         67
  50.7889         81
  50.8074         55
  50.8260         59
  50.8446         60
  50.8632         61
  50.8817         51
  50.9003         55
  50.9189         72
  50.9375         69
  50.9560         62
  50.9746         66
  50.9932         50
  51.0118         61
  51.0303         71
  51.0489         40
  51.0675         68
  51.0861         65
  51.1046         63
  51.1232         59
  51.1418         62
  51.1604         52
  51.1789         69
  51.1975         68
  51.2161         57
  51.2347         48
  51.2532         64
  51.2718         47
  51.2904         70
  51.3090         59
  51.3275         59
  51.3461         94
  51.3647         73
  51.3833         72
  51.4018         70
  51.4204         72
  51.4390         81
  51.4576         72
  51.4762         79
  51.4947         79
  51.5133         62
  51.5319         69
  51.5505         54
  51.5690         60
  51.5876         55
  51.6062         55
  51.6248         55
  51.6433         66
  51.6619         49
  51.6805         55
  51.6991         56
  51.7176         65
  51.7362         68
  51.7548         62
  51.7734         60
  51.7919         66
  51.8105         70
  51.8291         69
  51.8477         70
  51.8662         71
  51.8848         69
  51.9034         65
  51.9220         61
  51.9405         61
  51.9591         79
  51.9777         61
  51.9963         65
  52.0148         65
  52.0334         46
  52.0520         61
  52.0706         58
  52.0891         57
  52.1077         48
  52.1263         53
  52.1449         60
  52.1634         54
  52.1820         65
  52.2006         55
  52.2192         75
  52.2378         59
  52.2563         66
  52.2749         66
  52.2935         52
  52.3121         59
  52.3306         63
  52.3492         61
  52.3678         60
  52.3864         66
  52.4049         55
  52.4235         70
  52.4421         72
  52.4607         70
  52.4792         60
  52.4978         67
  52.5164         55
  52.5350         49
  52.5535         64
  52.5721         67
  52.5907         56
  52.6093         54
  52.6278         60
  52.6464         45
  52.6650         57
  52.6836         53
  52.7021         47
  52.7207         65
  52.7393         55
  52.7579         58
  52.7764         67
  52.7950         68
  52.8136         61
  52.8322         60
  52.8507         58
  52.8693         60
  52.8879         54
  52.9065         48
  52.9250         65
  52.9436         61
  52.9622         67
  52.9808         67
  52.9994         57
  53.0179         60
  53.0365         63
  53.0551         58
  53.0737         52
  53.0922         60
  53.1108         60
  53.1294         58
  53.1480         74
  53.1665         74
  53.1851         59
  53.2037         70
  53.2223         57
  53.2408         51
  53.2594         61
  53.2780         67
  53.2966         54
  53.3151         56
  53.3337         62
  53.3523         59
  53.3709         67
  53.3894         65
  53.4080         69
  53.4266         73
  53.4452         68
  53.4637         58
  53.4823         81
  53.5009         61
  53.5195         66
  53.5380         55
  53.5566         63
  53.5752         60
  53.5938         67
  53.6123         69
  53.6309         59
  53.6495         62
  53.6681         66
  53.6866         65
  53.7052         47
  53.7238         53
  53.7424         59
  53.7610         60
  53.7795         74
  53.7981         61
  53.8167         54
  53.8353         56
  53.8538         56
  53.8724         62
  53.8910         58
  53.9096         48
  53.9281         65
  53.9467         54
  53.9653         81
  53.9839         86
  54.0024         60
  54.0210         73
  54.0396         66
  54.0582         64
  54.0767         61
  54.0953         72
  54.1139         66
  54.1325         57
  54.1510         67
  54.1696         68
  54.1882         57
  54.2068         46
  54.2253         70
  54.2439         60
  54.2625         58
  54.2811         52
  54.2996         61
  54.3182         57
  54.3368         51
  54.3554         49
  54.3739         58
  54.3925         55
  54.4111         71
  54.4297         57
  54.4482         51
  54.4668         46
  54.4854         63
  54.5040         58
  54.5225         47
  54.5411         54
  54.5597         75
  54.5783         59
  54.5969         61
  54.6154         61
  54.6340         54
  54.6526         61
  54.6712         55
  54.6897         62
  54.7083         59
  54.7269         62
  54.7455         47
  54.7640         50
  54.7826         62
  54.8012         48
  54.8198         59
  54.8383         57
  54.8569         56
  54.8755         54
  54.8941         58
  54.9126         46
  54.9312         52
  54.9498         58
  54.9684         43
  54.9869         67
  55.0055         60
  55.0241         53
  55.0427         48
  55.0612         46
  55.0798         61
  55.0984         69
  55.1170         64
  55.1355         46
  55.1541         69
  55.1727         47
  55.1913         77
  55.2098         73
  55.2284         58
  55.2470         61
  55.2656         60
  55.2841         61
  55.3027         60
  55.3213         71
  55.3399         51
  55.3585         51
  55.3770         66
  55.3956         62
  55.4142         60
  55.4328         52
  55.4513         64
  55.4699         73
  55.4885         45
  55.5071         59
  55.5256         59
  55.5442         47
  55.5628         70
  55.5814         56
  55.5999         58
  55.6185         44
  55.6371         58
  55.6557         66
  55.6742         69
  55.6928         53
  55.7114         53
  55.7300         50
  55.7485         60
  55.7671         67
  55.7857         59
  55.8043         50
  55.8228         54
  55.8414         62
  55.8600         61
  55.8786         61
  55.8971         43
  55.9157         68
  55.9343         66
  55.9529         39
  55.9714         62
  55.9900         51
  56.0086         67
  56.0272         50
  56.0457         61
  56.0643         45
  56.0829         43
  56.1015         71
  56.1201         58
  56.1386         78
  56.1572         62
  56.1758         61
  56.1944         76
  56.2129         56
  56.2315         71
  56.2501         58
  56.2687         60
  56.2872         61
  56.3058         68
  56.3244         66
  56.3430         57
  56.3615         57
  56.3801         62
  56.3987         52
  56.4173         68
  56.4358         74
  56.4544         66
  56.4730         49
  56.4916         54
  56.5101         48
  56.5287         61
  56.5473         62
  56.5659         46
  56.5844         51
  56.6030         66
  56.6216         60
  56.6402         55
  56.6587         57
  56.6773         55
  56.6959         49
  56.7145         66
  56.7330         54
  56.7516         52
  56.7702         71
  56.7888         68
  56.8073         61
  56.8259         46
  56.8445         57
  56.8631         68
  56.8817         71
  56.9002         57
  56.9188         53
  56.9374         51
  56.9560         63
  56.9745         62
  56.9931         51
  57.0117         47
  57.0303         47
  57.0488         53
  57.0674         59
  57.0860         47
  57.1046         56
  57.1231         51
  57.1417         45
  57.1603         60
  57.1789         67
  57.1974         48
  57.2160         51
  57.2346         59
  57.2532         52
  57.2717         59
  57.2903         65
  57.3089         58
  57.3275         52
  57.3460         60
  57.3646         50
  57.3832         41
  57.4018         62
  57.4203         56
  57.4389         60
  57.4575         65
  57.4761         46
  57.4946         45
  57.5132         56
  57.5318         55
  57.5504         47
  57.5689         53
  57.5875         61
  57.6061         56
  57.6247         56
  57.6433         56
  57.6618         59
  57.6804         59
  57.6990         60
  57.7176         50
  57.7361         63
  57.7547         54
  57.7733         54
  57.7919         55
  57.8104         43
  57.8290         63
  57.8476         62
  57.8662         62
  57.8847         50
  57.9033         45
  57.9219         50
  57.9405         71
  57.9590         48
  57.9776         52
  57.9962         60
  58.0148         51
  58.0333         47
  58.0519         57
  58.0705         53
  58.0891         55
  58.1076         52
  58.1262         51
  58.1448         54
  58.1634         57
  58.1819         60
  58.2005         67
  58.2191         59
  58.2377         71
  58.2562         58
  58.2748         51
  58.2934         51
  58.3120         57
  58.3305         48
  58.3491         57
  58.3677         49
  58.3863         44
  58.4049         64
  58.4234         63
  58.4420         45
  58.4606         66
  58.4792         58
  58.4977         51
  58.5163         54
  58.5349         65
  58.5535         63
  58.5720         65
  58.5906         72
  58.6092         52
  58.6278         56
  58.6463         61
  58.6649         70
  58.6835         51
  58.7021         54
  58.7206         58
  58.7392         50
  58.7578         52
  58.7764         51
  58.7949         58
  58.8135         50
  58.8321         57
  58.8507         50
  58.8692         70
  58.8878         57
  58.9064         54
  58.9250         50
  58.9435         59
  58.9621         44
  58.9807         58
  58.9993         57
  59.0178         69
  59.0364         48
  59.0550         56
  59.0736         50
  59.0921         46
  59.1107         59
  59.1293         55
  59.1479         47
  59.1664         47
  59.1850         40
  59.2036         42
  59.2222         56
  59.2408         53
  59.2593         56
  59.2779         55
  59.2965         53
  59.3151         46
  59.3336         47
  59.3522         49
  59.3708         58
  59.3894         63
  59.4079         57
  59.4265         48
  59.4451         59
  59.4637         55
  59.4822         65
  59.5008         45
  59.5194         61
  59.5380         59
  59.5565         41
  59.5751         57
  59.5937         56
  59.6123         60
  59.6308         61
  59.6494         55
  59.6680         51
  59.6866         42
  59.7051         52
  59.7237         56
  59.7423         68
  59.7609         60
  59.7794         53
  59.7980         59
  59.8166         53
  59.8352         39
  59.8537         47
  59.8723         40
  59.8909         49
  59.9095         52
  59.9280         52
  59.9466         51
  59.9652         57
  59.9838         60
  60.0024         43
