; (content of file Y:\Sam\Apurva-07-20-2022\puck1\ML_20220721_21_SJD_0_LaB6-4min.raw)
_FILEVERSION = 3
_SAMPLE = ML_20220721_21_SJD_0_LaB6-4min
_+SAMPLE = 
_SITE = USA
_USER = Administrator
_GONIOMETER_CODE = 20
; Goniometer : D8 theta/2theta, stage : Unknown
_ATTACHMENTS_CODE = 0
_GONIOMETER_RADIUS = 200.5
_FIXED_DIVSLIT = 0.6
_FIXED_SAMPLESLIT = 0
_SOLLER_SLITS = 2
_FIXED_DETSLIT = 9.55
_MONOCHROMATOR = 0
; Incident beam monochromator : None
_SOLLER_SLITS_2 = N
_THIN_FILM = N
_BETA_FILTER = Y
_FIXED_ANTISLIT = 5.89
_ANALYZER_CODE = 0
; Received beam analyzer : None
_DATEMEASURED = "25-Jul-2022 15:26:41"
_WL_UNIT = A
_WL1 = 1.5406
_WL2 = 1.54439
_WL3 = 1.39222
_WLRATIO = 0.5
_ANODE = Cu
_V4_INF_CREATOR = XRDWizard
_V4_INF_CREATOR_VERSION = V2.9.0.22
_V4_INF_WIZARD_VERSION = V2.9.0.22
_V4_INF_WIZARD_ADDINS = V2.9.0.22
_V4_INF_WIZARD_DOCTYPE = XRD
_V4_INF_OSUSER = McQueenLab
_V4_INF_USER = Administrator
_V4_INF_SITE = USA
_V4_INF_SAMPLEID = ML_20220721_21_SJD_0_LaB6-4min

; Data for range 1
_DRIVE = COUPLED
_STEPTIME = 11.28
_STEPSIZE = 0.0185756
_STEPMODE = C
_START = 5
_THETA = 2.5
_2THETA = 5
_KHI = 0
_PHI = 0
_X = 0
_Y = 0
_Z = 0
_DETECTOR = 5
; Detector type : Unknown
_DETECTORSLIT = unkn
_AUX1 = 0
_AUX2 = 0
_AUX3 = 0
_TIMESTARTED = 15
_TEMP_RATE = -1
_TEMP_DELAY = -1
_KV = 40
_MA = 40
_RANGE_WL = 1.5406
_3DPLANE = 0
_V4_ADDITIONALDETECTOR = 257
_V4_PSD2THETA = 3.3675
_V4_PSDCHANNEL1 = 0
_V4_PSDAPERTURE = 12.68
_V4_PSDTYPE = 5
_V4_PSDFIXED = 0
_V4_COUNTERS_MASK = 4096
_V4_DRIVES_MASK = 0
_V4_ENCODERS_MASK = 0
_2THETACOUNTS = 1
; 2THETA  PSD
   5.0000        267
   5.0186        290
   5.0372        267
   5.0557        254
   5.0743        268
   5.0929        260
   5.1115        241
   5.1300        267
   5.1486        271
   5.1672        251
   5.1858        263
   5.2043        242
   5.2229        268
   5.2415        241
   5.2601        251
   5.2786        237
   5.2972        235
   5.3158        264
   5.3344        244
   5.3529        238
   5.3715        258
   5.3901        244
   5.4087        250
   5.4272        232
   5.4458        264
   5.4644        243
   5.4830        237
   5.5015        249
   5.5201        242
   5.5387        243
   5.5573        223
   5.5758        215
   5.5944        248
   5.6130        225
   5.6316        230
   5.6501        228
   5.6687        196
   5.6873        202
   5.7059        241
   5.7244        227
   5.7430        225
   5.7616        244
   5.7802        224
   5.7988        205
   5.8173        210
   5.8359        213
   5.8545        217
   5.8731        181
   5.8916        207
   5.9102        218
   5.9288        169
   5.9474        196
   5.9659        178
   5.9845        213
   6.0031        195
   6.0217        205
   6.0402        194
   6.0588        205
   6.0774        183
   6.0960        219
   6.1145        212
   6.1331        207
   6.1517        182
   6.1703        180
   6.1888        167
   6.2074        212
   6.2260        185
   6.2446        199
   6.2631        210
   6.2817        181
   6.3003        179
   6.3189        183
   6.3374        176
   6.3560        199
   6.3746        194
   6.3932        168
   6.4117        214
   6.4303        204
   6.4489        183
   6.4675        193
   6.4860        196
   6.5046        177
   6.5232        179
   6.5418        154
   6.5604        159
   6.5789        167
   6.5975        196
   6.6161        188
   6.6347        147
   6.6532        182
   6.6718        161
   6.6904        181
   6.7090        171
   6.7275        151
   6.7461        188
   6.7647        183
   6.7833        177
   6.8018        214
   6.8204        191
   6.8390        174
   6.8576        154
   6.8761        173
   6.8947        170
   6.9133        170
   6.9319        158
   6.9504        157
   6.9690        170
   6.9876        170
   7.0062        177
   7.0247        149
   7.0433        166
   7.0619        142
   7.0805        156
   7.0990        172
   7.1176        166
   7.1362        150
   7.1548        181
   7.1733        141
   7.1919        155
   7.2105        152
   7.2291        161
   7.2476        161
   7.2662        187
   7.2848        173
   7.3034        187
   7.3220        160
   7.3405        167
   7.3591        184
   7.3777        168
   7.3963        167
   7.4148        156
   7.4334        166
   7.4520        187
   7.4706        162
   7.4891        160
   7.5077        151
   7.5263        172
   7.5449        186
   7.5634        167
   7.5820        170
   7.6006        170
   7.6192        200
   7.6377        191
   7.6563        180
   7.6749        175
   7.6935        172
   7.7120        158
   7.7306        155
   7.7492        192
   7.7678        198
   7.7863        180
   7.8049        204
   7.8235        191
   7.8421        179
   7.8606        181
   7.8792        184
   7.8978        185
   7.9164        202
   7.9349        181
   7.9535        176
   7.9721        187
   7.9907        182
   8.0092        188
   8.0278        200
   8.0464        174
   8.0650        182
   8.0835        181
   8.1021        190
   8.1207        162
   8.1393        194
   8.1579        177
   8.1764        198
   8.1950        207
   8.2136        187
   8.2322        181
   8.2507        209
   8.2693        190
   8.2879        200
   8.3065        204
   8.3250        171
   8.3436        217
   8.3622        183
   8.3808        205
   8.3993        173
   8.4179        179
   8.4365        189
   8.4551        196
   8.4736        207
   8.4922        218
   8.5108        217
   8.5294        223
   8.5479        227
   8.5665        206
   8.5851        201
   8.6037        169
   8.6222        175
   8.6408        170
   8.6594        204
   8.6780        196
   8.6965        211
   8.7151        203
   8.7337        180
   8.7523        205
   8.7708        190
   8.7894        213
   8.8080        224
   8.8266        199
   8.8451        194
   8.8637        203
   8.8823        208
   8.9009        196
   8.9195        219
   8.9380        213
   8.9566        203
   8.9752        209
   8.9938        204
   9.0123        217
   9.0309        211
   9.0495        234
   9.0681        225
   9.0866        226
   9.1052        224
   9.1238        207
   9.1424        216
   9.1609        226
   9.1795        204
   9.1981        237
   9.2167        207
   9.2352        242
   9.2538        227
   9.2724        245
   9.2910        230
   9.3095        229
   9.3281        224
   9.3467        234
   9.3653        189
   9.3838        186
   9.4024        231
   9.4210        214
   9.4396        221
   9.4581        222
   9.4767        217
   9.4953        235
   9.5139        223
   9.5324        213
   9.5510        221
   9.5696        199
   9.5882        215
   9.6067        192
   9.6253        227
   9.6439        221
   9.6625        207
   9.6811        232
   9.6996        216
   9.7182        203
   9.7368        260
   9.7554        231
   9.7739        197
   9.7925        251
   9.8111        256
   9.8297        223
   9.8482        248
   9.8668        264
   9.8854        238
   9.9040        233
   9.9225        237
   9.9411        234
   9.9597        257
   9.9783        257
   9.9968        251
  10.0154        230
  10.0340        250
  10.0526        219
  10.0711        247
  10.0897        244
  10.1083        236
  10.1269        238
  10.1454        266
  10.1640        216
  10.1826        236
  10.2012        225
  10.2197        244
  10.2383        259
  10.2569        257
  10.2755        238
  10.2940        263
  10.3126        272
  10.3312        265
  10.3498        261
  10.3683        222
  10.3869        257
  10.4055        209
  10.4241        240
  10.4427        243
  10.4612        235
  10.4798        224
  10.4984        248
  10.5170        228
  10.5355        208
  10.5541        251
  10.5727        249
  10.5913        236
  10.6098        262
  10.6284        266
  10.6470        251
  10.6656        237
  10.6841        264
  10.7027        248
  10.7213        217
  10.7399        264
  10.7584        248
  10.7770        250
  10.7956        241
  10.8142        238
  10.8327        235
  10.8513        245
  10.8699        232
  10.8885        252
  10.9070        240
  10.9256        226
  10.9442        224
  10.9628        264
  10.9813        261
  10.9999        251
  11.0185        240
  11.0371        230
  11.0556        248
  11.0742        252
  11.0928        255
  11.1114        238
  11.1299        278
  11.1485        228
  11.1671        225
  11.1857        233
  11.2043        234
  11.2228        236
  11.2414        210
  11.2600        261
  11.2786        212
  11.2971        250
  11.3157        243
  11.3343        250
  11.3529        236
  11.3714        236
  11.3900        232
  11.4086        241
  11.4272        241
  11.4457        235
  11.4643        223
  11.4829        238
  11.5015        239
  11.5200        243
  11.5386        233
  11.5572        241
  11.5758        269
  11.5943        268
  11.6129        258
  11.6315        234
  11.6501        207
  11.6686        227
  11.6872        220
  11.7058        213
  11.7244        219
  11.7429        244
  11.7615        246
  11.7801        222
  11.7987        251
  11.8172        242
  11.8358        218
  11.8544        212
  11.8730        261
  11.8915        215
  11.9101        227
  11.9287        222
  11.9473        233
  11.9659        250
  11.9844        230
  12.0030        257
  12.0216        203
  12.0402        205
  12.0587        244
  12.0773        246
  12.0959        230
  12.1145        215
  12.1330        251
  12.1516        227
  12.1702        208
  12.1888        228
  12.2073        232
  12.2259        232
  12.2445        238
  12.2631        231
  12.2816        223
  12.3002        201
  12.3188        228
  12.3374        265
  12.3559        221
  12.3745        195
  12.3931        200
  12.4117        226
  12.4302        254
  12.4488        203
  12.4674        234
  12.4860        219
  12.5045        202
  12.5231        222
  12.5417        235
  12.5603        228
  12.5788        225
  12.5974        220
  12.6160        223
  12.6346        237
  12.6531        235
  12.6717        202
  12.6903        190
  12.7089        215
  12.7274        246
  12.7460        199
  12.7646        227
  12.7832        218
  12.8018        216
  12.8203        215
  12.8389        220
  12.8575        238
  12.8761        202
  12.8946        205
  12.9132        246
  12.9318        204
  12.9504        214
  12.9689        217
  12.9875        201
  13.0061        188
  13.0247        202
  13.0432        220
  13.0618        192
  13.0804        200
  13.0990        187
  13.1175        236
  13.1361        206
  13.1547        201
  13.1733        223
  13.1918        200
  13.2104        200
  13.2290        211
  13.2476        194
  13.2661        190
  13.2847        209
  13.3033        194
  13.3219        211
  13.3404        189
  13.3590        200
  13.3776        212
  13.3962        203
  13.4147        180
  13.4333        178
  13.4519        198
  13.4705        205
  13.4890        182
  13.5076        186
  13.5262        190
  13.5448        194
  13.5634        195
  13.5819        172
  13.6005        222
  13.6191        191
  13.6377        224
  13.6562        200
  13.6748        209
  13.6934        172
  13.7120        187
  13.7305        186
  13.7491        184
  13.7677        201
  13.7863        199
  13.8048        201
  13.8234        212
  13.8420        176
  13.8606        195
  13.8791        193
  13.8977        203
  13.9163        202
  13.9349        200
  13.9534        210
  13.9720        170
  13.9906        169
  14.0092        170
  14.0277        179
  14.0463        152
  14.0649        212
  14.0835        164
  14.1020        180
  14.1206        183
  14.1392        176
  14.1578        157
  14.1763        164
  14.1949        187
  14.2135        178
  14.2321        183
  14.2506        190
  14.2692        184
  14.2878        190
  14.3064        179
  14.3250        176
  14.3435        188
  14.3621        185
  14.3807        208
  14.3993        168
  14.4178        201
  14.4364        167
  14.4550        175
  14.4736        183
  14.4921        165
  14.5107        178
  14.5293        190
  14.5479        187
  14.5664        173
  14.5850        160
  14.6036        191
  14.6222        172
  14.6407        179
  14.6593        160
  14.6779        164
  14.6965        165
  14.7150        174
  14.7336        177
  14.7522        174
  14.7708        169
  14.7893        170
  14.8079        164
  14.8265        179
  14.8451        199
  14.8636        186
  14.8822        190
  14.9008        165
  14.9194        207
  14.9379        166
  14.9565        161
  14.9751        159
  14.9937        161
  15.0122        151
  15.0308        163
  15.0494        156
  15.0680        172
  15.0866        165
  15.1051        162
  15.1237        162
  15.1423        176
  15.1609        169
  15.1794        155
  15.1980        164
  15.2166        144
  15.2352        168
  15.2537        171
  15.2723        153
  15.2909        185
  15.3095        191
  15.3280        172
  15.3466        164
  15.3652        181
  15.3838        147
  15.4023        174
  15.4209        169
  15.4395        176
  15.4581        157
  15.4766        159
  15.4952        178
  15.5138        186
  15.5324        160
  15.5509        137
  15.5695        194
  15.5881        161
  15.6067        170
  15.6252        158
  15.6438        177
  15.6624        157
  15.6810        166
  15.6995        159
  15.7181        144
  15.7367        160
  15.7553        170
  15.7738        163
  15.7924        138
  15.8110        176
  15.8296        169
  15.8482        173
  15.8667        166
  15.8853        177
  15.9039        173
  15.9225        160
  15.9410        151
  15.9596        161
  15.9782        164
  15.9968        187
  16.0153        179
  16.0339        164
  16.0525        172
  16.0711        147
  16.0896        168
  16.1082        161
  16.1268        165
  16.1454        162
  16.1639        173
  16.1825        155
  16.2011        183
  16.2197        175
  16.2382        168
  16.2568        156
  16.2754        167
  16.2940        146
  16.3125        161
  16.3311        172
  16.3497        152
  16.3683        137
  16.3868        177
  16.4054        178
  16.4240        155
  16.4426        173
  16.4611        206
  16.4797        183
  16.4983        188
  16.5169        152
  16.5354        171
  16.5540        188
  16.5726        161
  16.5912        152
  16.6097        173
  16.6283        156
  16.6469        162
  16.6655        184
  16.6841        158
  16.7026        149
  16.7212        179
  16.7398        156
  16.7584        145
  16.7769        147
  16.7955        154
  16.8141        157
  16.8327        158
  16.8512        146
  16.8698        169
  16.8884        199
  16.9070        152
  16.9255        146
  16.9441        146
  16.9627        164
  16.9813        181
  16.9998        165
  17.0184        172
  17.0370        165
  17.0556        159
  17.0741        162
  17.0927        173
  17.1113        163
  17.1299        171
  17.1484        175
  17.1670        150
  17.1856        150
  17.2042        180
  17.2227        157
  17.2413        156
  17.2599        168
  17.2785        186
  17.2970        164
  17.3156        152
  17.3342        160
  17.3528        165
  17.3713        153
  17.3899        153
  17.4085        179
  17.4271        156
  17.4457        163
  17.4642        171
  17.4828        188
  17.5014        156
  17.5200        177
  17.5385        157
  17.5571        169
  17.5757        161
  17.5943        172
  17.6128        200
  17.6314        159
  17.6500        155
  17.6686        178
  17.6871        157
  17.7057        172
  17.7243        164
  17.7429        172
  17.7614        174
  17.7800        161
  17.7986        175
  17.8172        155
  17.8357        151
  17.8543        166
  17.8729        151
  17.8915        176
  17.9100        154
  17.9286        159
  17.9472        159
  17.9658        168
  17.9843        162
  18.0029        148
  18.0215        155
  18.0401        168
  18.0586        170
  18.0772        181
  18.0958        174
  18.1144        155
  18.1329        180
  18.1515        174
  18.1701        169
  18.1887        146
  18.2073        172
  18.2258        185
  18.2444        176
  18.2630        155
  18.2816        184
  18.3001        160
  18.3187        159
  18.3373        156
  18.3559        166
  18.3744        163
  18.3930        170
  18.4116        148
  18.4302        159
  18.4487        162
  18.4673        177
  18.4859        165
  18.5045        179
  18.5230        174
  18.5416        157
  18.5602        177
  18.5788        146
  18.5973        177
  18.6159        168
  18.6345        158
  18.6531        167
  18.6716        177
  18.6902        193
  18.7088        171
  18.7274        193
  18.7459        171
  18.7645        190
  18.7831        166
  18.8017        177
  18.8202        171
  18.8388        174
  18.8574        158
  18.8760        170
  18.8945        178
  18.9131        182
  18.9317        169
  18.9503        155
  18.9689        186
  18.9874        187
  19.0060        185
  19.0246        195
  19.0432        143
  19.0617        174
  19.0803        176
  19.0989        178
  19.1175        173
  19.1360        192
  19.1546        156
  19.1732        168
  19.1918        165
  19.2103        170
  19.2289        188
  19.2475        176
  19.2661        161
  19.2846        191
  19.3032        162
  19.3218        193
  19.3404        163
  19.3589        164
  19.3775        178
  19.3961        158
  19.4147        180
  19.4332        169
  19.4518        173
  19.4704        174
  19.4890        190
  19.5075        158
  19.5261        172
  19.5447        158
  19.5633        171
  19.5818        177
  19.6004        154
  19.6190        184
  19.6376        170
  19.6561        145
  19.6747        181
  19.6933        184
  19.7119        204
  19.7305        163
  19.7490        181
  19.7676        180
  19.7862        191
  19.8048        161
  19.8233        167
  19.8419        172
  19.8605        186
  19.8791        167
  19.8976        181
  19.9162        175
  19.9348        188
  19.9534        180
  19.9719        196
  19.9905        175
  20.0091        168
  20.0277        168
  20.0462        158
  20.0648        180
  20.0834        167
  20.1020        182
  20.1205        194
  20.1391        192
  20.1577        173
  20.1763        185
  20.1948        179
  20.2134        161
  20.2320        187
  20.2506        186
  20.2691        182
  20.2877        167
  20.3063        191
  20.3249        171
  20.3434        175
  20.3620        191
  20.3806        176
  20.3992        181
  20.4177        183
  20.4363        177
  20.4549        204
  20.4735        200
  20.4921        194
  20.5106        188
  20.5292        220
  20.5478        179
  20.5664        176
  20.5849        167
  20.6035        183
  20.6221        176
  20.6407        198
  20.6592        181
  20.6778        194
  20.6964        180
  20.7150        192
  20.7335        170
  20.7521        191
  20.7707        207
  20.7893        170
  20.8078        188
  20.8264        200
  20.8450        167
  20.8636        219
  20.8821        209
  20.9007        180
  20.9193        197
  20.9379        201
  20.9564        214
  20.9750        185
  20.9936        184
  21.0122        192
  21.0307        184
  21.0493        215
  21.0679        170
  21.0865        213
  21.1050        200
  21.1236        221
  21.1422        221
  21.1608        241
  21.1793        255
  21.1979        317
  21.2165        324
  21.2351        340
  21.2537        299
  21.2722        297
  21.2908        294
  21.3094        349
  21.3280        395
  21.3465        529
  21.3651        563
  21.3837        385
  21.4023        381
  21.4208        366
  21.4394        263
  21.4580        234
  21.4766        216
  21.4951        241
  21.5137        196
  21.5323        189
  21.5509        219
  21.5694        202
  21.5880        181
  21.6066        193
  21.6252        196
  21.6437        174
  21.6623        189
  21.6809        184
  21.6995        216
  21.7180        195
  21.7366        197
  21.7552        211
  21.7738        184
  21.7923        208
  21.8109        212
  21.8295        186
  21.8481        213
  21.8666        203
  21.8852        195
  21.9038        190
  21.9224        182
  21.9409        214
  21.9595        176
  21.9781        191
  21.9967        185
  22.0152        187
  22.0338        184
  22.0524        197
  22.0710        204
  22.0896        209
  22.1081        202
  22.1267        190
  22.1453        207
  22.1639        202
  22.1824        216
  22.2010        172
  22.2196        194
  22.2382        202
  22.2567        197
  22.2753        190
  22.2939        190
  22.3125        191
  22.3310        211
  22.3496        201
  22.3682        182
  22.3868        227
  22.4053        188
  22.4239        202
  22.4425        213
  22.4611        197
  22.4796        193
  22.4982        209
  22.5168        206
  22.5354        199
  22.5539        188
  22.5725        192
  22.5911        209
  22.6097        184
  22.6282        202
  22.6468        202
  22.6654        209
  22.6840        180
  22.7025        202
  22.7211        185
  22.7397        198
  22.7583        188
  22.7768        208
  22.7954        213
  22.8140        221
  22.8326        193
  22.8512        174
  22.8697        178
  22.8883        182
  22.9069        207
  22.9255        208
  22.9440        180
  22.9626        215
  22.9812        209
  22.9998        195
  23.0183        204
  23.0369        183
  23.0555        203
  23.0741        156
  23.0926        208
  23.1112        178
  23.1298        202
  23.1484        176
  23.1669        235
  23.1855        211
  23.2041        196
  23.2227        214
  23.2412        206
  23.2598        185
  23.2784        219
  23.2970        186
  23.3155        193
  23.3341        218
  23.3527        208
  23.3713        199
  23.3898        200
  23.4084        199
  23.4270        192
  23.4456        205
  23.4641        196
  23.4827        205
  23.5013        201
  23.5199        216
  23.5384        227
  23.5570        196
  23.5756        217
  23.5942        202
  23.6128        202
  23.6313        177
  23.6499        192
  23.6685        197
  23.6871        178
  23.7056        231
  23.7242        184
  23.7428        216
  23.7614        214
  23.7799        200
  23.7985        233
  23.8171        211
  23.8357        200
  23.8542        196
  23.8728        208
  23.8914        232
  23.9100        199
  23.9285        198
  23.9471        188
  23.9657        221
  23.9843        202
  24.0028        197
  24.0214        214
  24.0400        209
  24.0586        232
  24.0771        234
  24.0957        195
  24.1143        211
  24.1329        224
  24.1514        208
  24.1700        195
  24.1886        235
  24.2072        221
  24.2257        235
  24.2443        230
  24.2629        210
  24.2815        218
  24.3000        232
  24.3186        216
  24.3372        239
  24.3558        218
  24.3744        195
  24.3929        190
  24.4115        222
  24.4301        202
  24.4487        234
  24.4672        224
  24.4858        188
  24.5044        189
  24.5230        196
  24.5415        214
  24.5601        232
  24.5787        207
  24.5973        191
  24.6158        195
  24.6344        205
  24.6530        183
  24.6716        204
  24.6901        242
  24.7087        192
  24.7273        212
  24.7459        224
  24.7644        171
  24.7830        216
  24.8016        184
  24.8202        225
  24.8387        186
  24.8573        216
  24.8759        198
  24.8945        192
  24.9130        167
  24.9316        190
  24.9502        246
  24.9688        191
  24.9873        224
  25.0059        211
  25.0245        223
  25.0431        189
  25.0616        209
  25.0802        196
  25.0988        184
  25.1174        204
  25.1360        202
  25.1545        198
  25.1731        219
  25.1917        188
  25.2103        212
  25.2288        199
  25.2474        186
  25.2660        174
  25.2846        215
  25.3031        200
  25.3217        197
  25.3403        184
  25.3589        195
  25.3774        181
  25.3960        199
  25.4146        212
  25.4332        180
  25.4517        187
  25.4703        204
  25.4889        217
  25.5075        202
  25.5260        194
  25.5446        198
  25.5632        182
  25.5818        219
  25.6003        205
  25.6189        189
  25.6375        215
  25.6561        219
  25.6746        204
  25.6932        190
  25.7118        186
  25.7304        206
  25.7489        195
  25.7675        192
  25.7861        217
  25.8047        200
  25.8232        195
  25.8418        188
  25.8604        180
  25.8790        214
  25.8976        198
  25.9161        178
  25.9347        209
  25.9533        220
  25.9719        192
  25.9904        173
  26.0090        180
  26.0276        220
  26.0462        177
  26.0647        193
  26.0833        181
  26.1019        194
  26.1205        185
  26.1390        184
  26.1576        193
  26.1762        179
  26.1948        177
  26.2133        198
  26.2319        191
  26.2505        187
  26.2691        221
  26.2876        196
  26.3062        200
  26.3248        149
  26.3434        196
  26.3619        205
  26.3805        212
  26.3991        219
  26.4177        192
  26.4362        183
  26.4548        180
  26.4734        208
  26.4920        233
  26.5105        170
  26.5291        212
  26.5477        170
  26.5663        186
  26.5848        186
  26.6034        202
  26.6220        204
  26.6406        184
  26.6591        219
  26.6777        182
  26.6963        199
  26.7149        203
  26.7335        182
  26.7520        183
  26.7706        197
  26.7892        183
  26.8078        193
  26.8263        195
  26.8449        190
  26.8635        192
  26.8821        160
  26.9006        213
  26.9192        203
  26.9378        171
  26.9564        204
  26.9749        205
  26.9935        201
  27.0121        190
  27.0307        183
  27.0492        181
  27.0678        200
  27.0864        177
  27.1050        192
  27.1235        211
  27.1421        229
  27.1607        254
  27.1793        240
  27.1978        228
  27.2164        231
  27.2350        228
  27.2536        229
  27.2721        231
  27.2907        234
  27.3093        215
  27.3279        197
  27.3464        175
  27.3650        199
  27.3836        188
  27.4022        167
  27.4207        192
  27.4393        182
  27.4579        201
  27.4765        187
  27.4951        177
  27.5136        170
  27.5322        201
  27.5508        184
  27.5694        175
  27.5879        185
  27.6065        176
  27.6251        170
  27.6437        176
  27.6622        170
  27.6808        183
  27.6994        217
  27.7180        180
  27.7365        187
  27.7551        180
  27.7737        186
  27.7923        205
  27.8108        177
  27.8294        175
  27.8480        158
  27.8666        176
  27.8851        188
  27.9037        197
  27.9223        182
  27.9409        168
  27.9594        202
  27.9780        171
  27.9966        196
  28.0152        169
  28.0337        184
  28.0523        166
  28.0709        174
  28.0895        175
  28.1080        178
  28.1266        174
  28.1452        195
  28.1638        187
  28.1823        180
  28.2009        187
  28.2195        177
  28.2381        177
  28.2567        171
  28.2752        167
  28.2938        181
  28.3124        166
  28.3310        174
  28.3495        160
  28.3681        180
  28.3867        159
  28.4053        154
  28.4238        160
  28.4424        156
  28.4610        163
  28.4796        171
  28.4981        176
  28.5167        175
  28.5353        161
  28.5539        172
  28.5724        160
  28.5910        177
  28.6096        162
  28.6282        172
  28.6467        164
  28.6653        169
  28.6839        194
  28.7025        188
  28.7210        187
  28.7396        177
  28.7582        175
  28.7768        184
  28.7953        182
  28.8139        184
  28.8325        166
  28.8511        174
  28.8696        160
  28.8882        148
  28.9068        173
  28.9254        176
  28.9439        145
  28.9625        148
  28.9811        153
  28.9997        171
  29.0183        163
  29.0368        150
  29.0554        171
  29.0740        168
  29.0926        170
  29.1111        159
  29.1297        167
  29.1483        181
  29.1669        172
  29.1854        141
  29.2040        161
  29.2226        172
  29.2412        157
  29.2597        175
  29.2783        195
  29.2969        150
  29.3155        155
  29.3340        168
  29.3526        166
  29.3712        169
  29.3898        153
  29.4083        169
  29.4269        146
  29.4455        156
  29.4641        151
  29.4826        174
  29.5012        153
  29.5198        151
  29.5384        141
  29.5569        149
  29.5755        133
  29.5941        178
  29.6127        137
  29.6312        154
  29.6498        154
  29.6684        140
  29.6870        172
  29.7055        133
  29.7241        170
  29.7427        166
  29.7613        176
  29.7799        137
  29.7984        138
  29.8170        163
  29.8356        157
  29.8542        172
  29.8727        178
  29.8913        167
  29.9099        147
  29.9285        164
  29.9470        149
  29.9656        166
  29.9842        180
  30.0028        169
  30.0213        150
  30.0399        157
  30.0585        161
  30.0771        155
  30.0956        158
  30.1142        161
  30.1328        156
  30.1514        165
  30.1699        179
  30.1885        147
  30.2071        165
  30.2257        183
  30.2442        164
  30.2628        165
  30.2814        172
  30.3000        154
  30.3185        197
  30.3371        226
  30.3557        269
  30.3743        311
  30.3928        361
  30.4114        274
  30.4300        237
  30.4486        236
  30.4671        241
  30.4857        235
  30.5043        198
  30.5229        171
  30.5415        155
  30.5600        155
  30.5786        149
  30.5972        168
  30.6158        149
  30.6343        151
  30.6529        163
  30.6715        161
  30.6901        160
  30.7086        145
  30.7272        161
  30.7458        163
  30.7644        137
  30.7829        168
  30.8015        131
  30.8201        132
  30.8387        120
  30.8572        157
  30.8758        161
  30.8944        143
  30.9130        122
  30.9315        138
  30.9501        143
  30.9687        145
  30.9873        138
  31.0058        133
  31.0244        139
  31.0430        132
  31.0616        135
  31.0801        152
  31.0987        125
  31.1173        145
  31.1359        135
  31.1544        165
  31.1730        158
  31.1916        159
  31.2102        156
  31.2287        139
  31.2473        157
  31.2659        142
  31.2845        149
  31.3030        137
  31.3216        136
  31.3402        124
  31.3588        138
  31.3774        151
  31.3959        144
  31.4145        125
  31.4331        154
  31.4517        145
  31.4702        168
  31.4888        136
  31.5074        110
  31.5260        132
  31.5445        120
  31.5631        137
  31.5817        130
  31.6003        136
  31.6188        143
  31.6374        142
  31.6560        141
  31.6746        141
  31.6931        131
  31.7117        119
  31.7303        147
  31.7489        148
  31.7674        149
  31.7860        141
  31.8046        132
  31.8232        148
  31.8417        139
  31.8603        139
  31.8789        139
  31.8975        123
  31.9160        134
  31.9346        137
  31.9532        122
  31.9718        144
  31.9903        138
  32.0089        146
  32.0275        131
  32.0461        123
  32.0646        127
  32.0832        127
  32.1018        118
  32.1204        144
  32.1390        131
  32.1575        134
  32.1761        112
  32.1947        131
  32.2133        129
  32.2318        132
  32.2504        123
  32.2690        121
  32.2876        140
  32.3061        133
  32.3247        139
  32.3433        142
  32.3619        146
  32.3804        127
  32.3990        120
  32.4176        129
  32.4362        159
  32.4547        147
  32.4733        167
  32.4919        170
  32.5105        126
  32.5290        149
  32.5476        142
  32.5662        125
  32.5848        136
  32.6033        133
  32.6219        137
  32.6405        131
  32.6591        139
  32.6776        154
  32.6962        128
  32.7148        133
  32.7334        126
  32.7519        128
  32.7705        138
  32.7891        131
  32.8077        121
  32.8262        127
  32.8448        119
  32.8634        122
  32.8820        127
  32.9006        110
  32.9191        135
  32.9377        130
  32.9563        138
  32.9749        120
  32.9934        134
  33.0120        130
  33.0306        110
  33.0492        133
  33.0677        105
  33.0863        141
  33.1049        126
  33.1235        125
  33.1420        116
  33.1606        124
  33.1792        133
  33.1978        110
  33.2163        137
  33.2349        136
  33.2535        107
  33.2721        116
  33.2906        114
  33.3092        130
  33.3278        135
  33.3464        137
  33.3649        123
  33.3835        105
  33.4021        123
  33.4207        122
  33.4392        113
  33.4578        123
  33.4764        120
  33.4950        127
  33.5135        125
  33.5321        124
  33.5507        115
  33.5693        122
  33.5878        124
  33.6064        122
  33.6250        107
  33.6436        119
  33.6622        134
  33.6807        116
  33.6993        117
  33.7179        126
  33.7365        109
  33.7550        120
  33.7736        105
  33.7922        108
  33.8108        106
  33.8293        107
  33.8479        109
  33.8665        109
  33.8851        112
  33.9036        123
  33.9222         97
  33.9408        104
  33.9594        102
  33.9779        110
  33.9965        119
  34.0151        131
  34.0337        128
  34.0522        101
  34.0708        100
  34.0894        131
  34.1080        112
  34.1265        109
  34.1451        125
  34.1637        119
  34.1823        123
  34.2008        131
  34.2194        125
  34.2380        122
  34.2566        102
  34.2751        121
  34.2937        112
  34.3123        100
  34.3309         97
  34.3494        111
  34.3680        110
  34.3866        103
  34.4052        101
  34.4238        102
  34.4423         87
  34.4609        110
  34.4795        120
  34.4981        131
  34.5166        113
  34.5352        110
  34.5538        135
  34.5724        121
  34.5909        125
  34.6095        144
  34.6281        112
  34.6467        152
  34.6652        126
  34.6838        144
  34.7024        139
  34.7210        146
  34.7395        142
  34.7581        161
  34.7767        155
  34.7953        151
  34.8138        148
  34.8324        132
  34.8510        132
  34.8696        135
  34.8881        124
  34.9067        128
  34.9253        152
  34.9439         95
  34.9624        128
  34.9810        105
  34.9996        124
  35.0182        106
  35.0367        106
  35.0553        103
  35.0739        104
  35.0925        109
  35.1110         86
  35.1296        102
  35.1482        108
  35.1668        108
  35.1854        122
  35.2039        109
  35.2225        119
  35.2411        106
  35.2597         89
  35.2782        125
  35.2968        102
  35.3154        117
  35.3340        102
  35.3525         97
  35.3711        102
  35.3897        116
  35.4083        103
  35.4268        119
  35.4454        110
  35.4640        106
  35.4826         90
  35.5011        113
  35.5197        103
  35.5383         96
  35.5569        104
  35.5754        102
  35.5940        101
  35.6126        104
  35.6312         92
  35.6497        101
  35.6683         91
  35.6869         90
  35.7055        104
  35.7240        102
  35.7426         94
  35.7612        108
  35.7798        121
  35.7983        115
  35.8169        115
  35.8355         91
  35.8541        103
  35.8726        123
  35.8912         98
  35.9098        106
  35.9284         99
  35.9469        106
  35.9655        112
  35.9841        108
  36.0027         93
  36.0213         99
  36.0398         92
  36.0584         93
  36.0770         92
  36.0956        101
  36.1141         93
  36.1327        104
  36.1513         77
  36.1699         94
  36.1884        109
  36.2070         85
  36.2256         81
  36.2442         74
  36.2627         99
  36.2813         95
  36.2999         97
  36.3185         95
  36.3370        109
  36.3556        100
  36.3742        111
  36.3928         99
  36.4113         87
  36.4299        100
  36.4485        109
  36.4671         87
  36.4856         93
  36.5042         97
  36.5228         94
  36.5414        108
  36.5599         78
  36.5785        105
  36.5971         85
  36.6157         86
  36.6342         94
  36.6528         96
  36.6714        102
  36.6900        101
  36.7085         97
  36.7271        105
  36.7457         95
  36.7643         97
  36.7829        100
  36.8014        109
  36.8200         94
  36.8386        106
  36.8572        105
  36.8757         97
  36.8943         96
  36.9129        121
  36.9315         86
  36.9500         95
  36.9686         92
  36.9872         80
  37.0058        108
  37.0243         96
  37.0429        110
  37.0615         92
  37.0801        104
  37.0986        111
  37.1172         99
  37.1358        113
  37.1544        111
  37.1729         85
  37.1915         84
  37.2101         90
  37.2287        107
  37.2472         94
  37.2658        105
  37.2844         92
  37.3030        100
  37.3215         99
  37.3401         96
  37.3587        107
  37.3773        113
  37.3958         99
  37.4144        130
  37.4330        149
  37.4516        158
  37.4701        118
  37.4887        106
  37.5073        113
  37.5259        118
  37.5445        114
  37.5630         98
  37.5816         94
  37.6002         85
  37.6188         99
  37.6373         99
  37.6559         99
  37.6745         82
  37.6931         79
  37.7116         98
  37.7302         93
  37.7488         92
  37.7674         84
  37.7859         82
  37.8045         99
  37.8231         92
  37.8417         80
  37.8602         95
  37.8788         85
  37.8974         86
  37.9160         90
  37.9345         75
  37.9531         85
  37.9717         81
  37.9903         97
  38.0088         77
  38.0274         87
  38.0460         82
  38.0646         81
  38.0831        100
  38.1017         83
  38.1203         75
  38.1389         85
  38.1574        102
  38.1760         87
  38.1946         99
  38.2132         87
  38.2317         73
  38.2503         95
  38.2689        106
  38.2875         92
  38.3061         65
  38.3246         83
  38.3432         85
  38.3618         90
  38.3804         69
  38.3989         83
  38.4175         87
  38.4361         86
  38.4547         88
  38.4732         83
  38.4918        102
  38.5104         67
  38.5290         77
  38.5475         84
  38.5661         96
  38.5847         84
  38.6033         85
  38.6218         88
  38.6404         86
  38.6590         68
  38.6776         83
  38.6961         86
  38.7147         87
  38.7333         86
  38.7519         93
  38.7704         72
  38.7890         87
  38.8076         89
  38.8262         93
  38.8447        105
  38.8633         80
  38.8819         87
  38.9005         80
  38.9190         81
  38.9376         95
  38.9562         84
  38.9748         85
  38.9933         79
  39.0119         87
  39.0305         74
  39.0491         79
  39.0677        102
  39.0862         97
  39.1048         91
  39.1234         85
  39.1420         54
  39.1605         87
  39.1791         73
  39.1977         82
  39.2163         91
  39.2348         80
  39.2534         65
  39.2720         92
  39.2906         92
  39.3091         79
  39.3277         82
  39.3463         73
  39.3649         74
  39.3834         87
  39.4020         77
  39.4206         87
  39.4392         92
  39.4577         70
  39.4763         67
  39.4949         81
  39.5135         92
  39.5320         99
  39.5506         78
  39.5692         63
  39.5878         74
  39.6063         76
  39.6249         91
  39.6435         81
  39.6621         81
  39.6806         77
  39.6992         74
  39.7178         84
  39.7364         82
  39.7549         87
  39.7735         69
  39.7921         75
  39.8107         82
  39.8293         89
  39.8478         80
  39.8664         79
  39.8850         86
  39.9036         73
  39.9221         71
  39.9407         61
  39.9593         64
  39.9779         58
  39.9964         82
  40.0150         80
  40.0336         71
  40.0522         85
  40.0707         82
  40.0893         91
  40.1079         73
  40.1265         84
  40.1450         85
  40.1636         76
  40.1822         67
  40.2008         95
  40.2193         78
  40.2379         64
  40.2565         70
  40.2751         76
  40.2936         78
  40.3122         66
  40.3308         69
  40.3494         62
  40.3679         88
  40.3865         93
  40.4051         61
  40.4237         83
  40.4422         81
  40.4608         73
  40.4794         91
  40.4980         85
  40.5165         78
  40.5351         76
  40.5537         79
  40.5723         80
  40.5908         76
  40.6094         79
  40.6280         66
  40.6466         71
  40.6652         82
  40.6837         79
  40.7023         79
  40.7209         84
  40.7395         82
  40.7580         78
  40.7766         75
  40.7952         86
  40.8138         80
  40.8323         66
  40.8509         64
  40.8695         68
  40.8881         78
  40.9066         88
  40.9252        102
  40.9438         82
  40.9624         87
  40.9809         79
  40.9995         84
  41.0181         70
  41.0367         83
  41.0552         73
  41.0738         86
  41.0924         84
  41.1110         73
  41.1295         91
  41.1481         72
  41.1667         78
  41.1853         89
  41.2038         70
  41.2224         91
  41.2410         86
  41.2596         55
  41.2781         72
  41.2967         62
  41.3153         76
  41.3339         64
  41.3524         77
  41.3710         70
  41.3896         86
  41.4082         78
  41.4268         69
  41.4453         73
  41.4639         81
  41.4825         65
  41.5011         76
  41.5196         70
  41.5382         60
  41.5568         78
  41.5754         78
  41.5939         84
  41.6125         83
  41.6311         80
  41.6497         79
  41.6682         74
  41.6868         76
  41.7054         76
  41.7240         80
  41.7425         74
  41.7611         76
  41.7797         72
  41.7983         88
  41.8168         79
  41.8354         76
  41.8540         77
  41.8726         81
  41.8911         72
  41.9097         76
  41.9283         89
  41.9469         81
  41.9654         91
  41.9840         60
  42.0026         72
  42.0212         79
  42.0397         56
  42.0583         76
  42.0769         80
  42.0955         90
  42.1140         74
  42.1326         90
  42.1512         94
  42.1698         83
  42.1884         83
  42.2069         65
  42.2255         67
  42.2441         69
  42.2627         64
  42.2812         68
  42.2998         68
  42.3184         77
  42.3370         70
  42.3555         83
  42.3741         73
  42.3927         68
  42.4113         70
  42.4298         86
  42.4484         72
  42.4670         75
  42.4856         87
  42.5041         75
  42.5227         73
  42.5413         80
  42.5599         71
  42.5784         77
  42.5970         73
  42.6156         84
  42.6342         76
  42.6527         95
  42.6713         83
  42.6899         63
  42.7085         68
  42.7270         76
  42.7456         73
  42.7642         79
  42.7828         80
  42.8013         67
  42.8199         61
  42.8385         82
  42.8571         68
  42.8756         69
  42.8942         78
  42.9128         73
  42.9314         72
  42.9500         63
  42.9685         82
  42.9871         72
  43.0057         59
  43.0243         58
  43.0428         70
  43.0614         67
  43.0800         81
  43.0986         85
  43.1171         73
  43.1357         73
  43.1543         71
  43.1729         93
  43.1914         93
  43.2100         93
  43.2286         87
  43.2472         92
  43.2657        100
  43.2843         95
  43.3029         82
  43.3215         68
  43.3400         84
  43.3586         85
  43.3772         82
  43.3958         85
  43.4143         79
  43.4329        104
  43.4515         97
  43.4701        107
  43.4886        128
  43.5072        134
  43.5258        129
  43.5444        112
  43.5629         99
  43.5815        111
  43.6001         99
  43.6187        102
  43.6372         94
  43.6558         82
  43.6744         89
  43.6930        100
  43.7116         71
  43.7301         77
  43.7487         89
  43.7673         88
  43.7859         79
  43.8044         87
  43.8230         75
  43.8416         87
  43.8602         69
  43.8787         62
  43.8973         71
  43.9159         66
  43.9345         82
  43.9530         66
  43.9716         75
  43.9902         69
  44.0088         79
  44.0273         78
  44.0459         69
  44.0645         81
  44.0831         81
  44.1016         75
  44.1202         78
  44.1388         72
  44.1574         69
  44.1759         72
  44.1945         53
  44.2131         76
  44.2317         76
  44.2502         71
  44.2688         51
  44.2874         79
  44.3060         79
  44.3245         69
  44.3431         95
  44.3617         80
  44.3803         70
  44.3988         69
  44.4174         72
  44.4360         84
  44.4546         86
  44.4732         87
  44.4917         72
  44.5103         78
  44.5289         82
  44.5475         88
  44.5660         79
  44.5846         77
  44.6032         65
  44.6218         79
  44.6403         75
  44.6589         69
  44.6775         81
  44.6961         70
  44.7146         74
  44.7332         81
  44.7518         72
  44.7704         73
  44.7889         70
  44.8075         79
  44.8261         72
  44.8447         63
  44.8632         71
  44.8818         91
  44.9004         68
  44.9190         86
  44.9375         71
  44.9561         62
  44.9747         91
  44.9933         73
  45.0118         66
  45.0304         54
  45.0490         54
  45.0676         72
  45.0861         64
  45.1047         80
  45.1233         78
  45.1419        103
  45.1604         83
  45.1790         80
  45.1976         73
  45.2162         78
  45.2347         60
  45.2533         65
  45.2719         71
  45.2905         74
  45.3091         74
  45.3276         71
  45.3462         68
  45.3648         67
  45.3834         87
  45.4019         66
  45.4205         82
  45.4391         65
  45.4577         78
  45.4762         77
  45.4948         73
  45.5134         64
  45.5320         84
  45.5505         65
  45.5691         80
  45.5877         60
  45.6063         69
  45.6248         75
  45.6434         72
  45.6620         66
  45.6806         72
  45.6991         82
  45.7177         75
  45.7363         73
  45.7549         71
  45.7734         87
  45.7920         78
  45.8106         73
  45.8292         73
  45.8477         61
  45.8663         56
  45.8849         81
  45.9035         62
  45.9220         53
  45.9406         58
  45.9592         71
  45.9778         58
  45.9963         59
  46.0149         62
  46.0335         72
  46.0521         69
  46.0707         69
  46.0892         65
  46.1078         75
  46.1264         69
  46.1450         78
  46.1635         62
  46.1821         57
  46.2007         69
  46.2193         63
  46.2378         78
  46.2564         58
  46.2750         61
  46.2936         59
  46.3121         75
  46.3307         62
  46.3493         83
  46.3679         65
  46.3864         67
  46.4050         72
  46.4236         58
  46.4422         76
  46.4607         74
  46.4793         67
  46.4979         62
  46.5165         65
  46.5350         92
  46.5536         84
  46.5722         61
  46.5908         58
  46.6093         69
  46.6279         59
  46.6465         71
  46.6651         74
  46.6836         57
  46.7022         75
  46.7208         52
  46.7394         61
  46.7579         67
  46.7765         73
  46.7951         60
  46.8137         64
  46.8323         68
  46.8508         59
  46.8694         68
  46.8880         51
  46.9066         65
  46.9251         70
  46.9437         56
  46.9623         64
  46.9809         74
  46.9994         60
  47.0180         73
  47.0366         57
  47.0552         74
  47.0737         68
  47.0923         71
  47.1109         53
  47.1295         63
  47.1480         72
  47.1666         74
  47.1852         73
  47.2038         61
  47.2223         69
  47.2409         58
  47.2595         68
  47.2781         54
  47.2966         61
  47.3152         62
  47.3338         65
  47.3524         58
  47.3709         65
  47.3895         81
  47.4081         65
  47.4267         53
  47.4452         64
  47.4638         56
  47.4824         69
  47.5010         61
  47.5195         79
  47.5381         71
  47.5567         63
  47.5753         72
  47.5939         62
  47.6124         64
  47.6310         59
  47.6496         62
  47.6682         66
  47.6867         60
  47.7053         69
  47.7239         68
  47.7425         63
  47.7610         72
  47.7796         60
  47.7982         69
  47.8168         61
  47.8353         64
  47.8539         70
  47.8725         58
  47.8911         54
  47.9096         67
  47.9282         77
  47.9468         66
  47.9654         68
  47.9839         43
  48.0025         71
  48.0211         64
  48.0397         59
  48.0582         64
  48.0768         53
  48.0954         61
  48.1140         69
  48.1325         49
  48.1511         71
  48.1697         62
  48.1883         61
  48.2068         58
  48.2254         67
  48.2440         79
  48.2626         68
  48.2811         61
  48.2997         58
  48.3183         68
  48.3369         47
  48.3555         68
  48.3740         57
  48.3926         64
  48.4112         67
  48.4298         48
  48.4483         65
  48.4669         54
  48.4855         59
  48.5041         74
  48.5226         66
  48.5412         71
  48.5598         62
  48.5784         78
  48.5969         67
  48.6155         66
  48.6341         68
  48.6527         66
  48.6712         67
  48.6898         64
  48.7084         58
  48.7270         55
  48.7455         67
  48.7641         69
  48.7827         82
  48.8013         71
  48.8198         57
  48.8384         72
  48.8570         73
  48.8756         78
  48.8941         89
  48.9127         90
  48.9313         99
  48.9499        133
  48.9684        135
  48.9870        109
  49.0056         70
  49.0242         85
  49.0427         77
  49.0613         89
  49.0799        103
  49.0985         99
  49.1171         90
  49.1356         69
  49.1542         66
  49.1728         66
  49.1914         72
  49.2099         66
  49.2285         73
  49.2471         68
  49.2657         67
  49.2842         66
  49.3028         59
  49.3214         55
  49.3400         58
  49.3585         46
  49.3771         64
  49.3957         57
  49.4143         63
  49.4328         67
  49.4514         54
  49.4700         55
  49.4886         54
  49.5071         53
  49.5257         53
  49.5443         65
  49.5629         54
  49.5814         55
  49.6000         82
  49.6186         75
  49.6372         60
  49.6557         60
  49.6743         73
  49.6929         78
  49.7115         54
  49.7300         51
  49.7486         65
  49.7672         60
  49.7858         61
  49.8043         54
  49.8229         71
  49.8415         65
  49.8601         83
  49.8786         61
  49.8972         55
  49.9158         51
  49.9344         54
  49.9530         74
  49.9715         59
  49.9901         66
  50.0087         58
  50.0273         63
  50.0458         62
  50.0644         65
  50.0830         66
  50.1016         61
  50.1201         63
  50.1387         56
  50.1573         72
  50.1759         75
  50.1944         66
  50.2130         69
  50.2316         71
  50.2502         61
  50.2687         63
  50.2873         67
  50.3059         68
  50.3245         69
  50.3430         57
  50.3616         72
  50.3802         52
  50.3988         53
  50.4173         69
  50.4359         49
  50.4545         58
  50.4731         61
  50.4916         70
  50.5102         66
  50.5288         54
  50.5474         69
  50.5659         57
  50.5845         57
  50.6031         64
  50.6217         71
  50.6402         52
  50.6588         69
  50.6774         51
  50.6960         59
  50.7146         54
  50.7331         54
  50.7517         62
  50.7703         65
  50.7889         55
  50.8074         66
  50.8260         57
  50.8446         69
  50.8632         64
  50.8817         52
  50.9003         46
  50.9189         54
  50.9375         55
  50.9560         56
  50.9746         71
  50.9932         65
  51.0118         65
  51.0303         76
  51.0489         62
  51.0675         51
  51.0861         56
  51.1046         61
  51.1232         67
  51.1418         69
  51.1604         62
  51.1789         60
  51.1975         57
  51.2161         51
  51.2347         58
  51.2532         67
  51.2718         55
  51.2904         67
  51.3090         67
  51.3275         65
  51.3461         56
  51.3647         67
  51.3833         55
  51.4018         73
  51.4204         74
  51.4390         78
  51.4576         66
  51.4762         71
  51.4947         68
  51.5133         68
  51.5319         70
  51.5505         69
  51.5690         72
  51.5876         55
  51.6062         70
  51.6248         69
  51.6433         67
  51.6619         73
  51.6805         60
  51.6991         62
  51.7176         72
  51.7362         65
  51.7548         61
  51.7734         72
  51.7919         72
  51.8105         57
  51.8291         64
  51.8477         68
  51.8662         84
  51.8848         65
  51.9034         62
  51.9220         69
  51.9405         58
  51.9591         79
  51.9777         62
  51.9963         60
  52.0148         66
  52.0334         63
  52.0520         68
  52.0706         46
  52.0891         81
  52.1077         59
  52.1263         48
  52.1449         58
  52.1634         53
  52.1820         49
  52.2006         46
  52.2192         58
  52.2378         51
  52.2563         56
  52.2749         57
  52.2935         59
  52.3121         53
  52.3306         48
  52.3492         55
  52.3678         55
  52.3864         68
  52.4049         79
  52.4235         64
  52.4421         51
  52.4607         64
  52.4792         65
  52.4978         64
  52.5164         55
  52.5350         64
  52.5535         55
  52.5721         54
  52.5907         64
  52.6093         68
  52.6278         41
  52.6464         64
  52.6650         55
  52.6836         51
  52.7021         55
  52.7207         57
  52.7393         64
  52.7579         46
  52.7764         55
  52.7950         53
  52.8136         66
  52.8322         57
  52.8507         56
  52.8693         54
  52.8879         72
  52.9065         74
  52.9250         54
  52.9436         67
  52.9622         64
  52.9808         66
  52.9994         71
  53.0179         62
  53.0365         62
  53.0551         59
  53.0737         40
  53.0922         59
  53.1108         61
  53.1294         46
  53.1480         54
  53.1665         67
  53.1851         72
  53.2037         54
  53.2223         60
  53.2408         57
  53.2594         61
  53.2780         60
  53.2966         64
  53.3151         71
  53.3337         79
  53.3523         54
  53.3709         52
  53.3894         53
  53.4080         65
  53.4266         64
  53.4452         49
  53.4637         57
  53.4823         70
  53.5009         53
  53.5195         67
  53.5380         49
  53.5566         64
  53.5752         64
  53.5938         52
  53.6123         70
  53.6309         64
  53.6495         51
  53.6681         47
  53.6866         62
  53.7052         56
  53.7238         77
  53.7424         51
  53.7610         68
  53.7795         50
  53.7981         60
  53.8167         57
  53.8353         49
  53.8538         64
  53.8724         68
  53.8910         59
  53.9096         48
  53.9281         63
  53.9467         74
  53.9653         83
  53.9839         71
  54.0024         93
  54.0210         77
  54.0396         60
  54.0582         64
  54.0767         58
  54.0953         68
  54.1139         78
  54.1325         69
  54.1510         74
  54.1696         70
  54.1882         70
  54.2068         64
  54.2253         53
  54.2439         58
  54.2625         60
  54.2811         56
  54.2996         52
  54.3182         67
  54.3368         60
  54.3554         48
  54.3739         47
  54.3925         57
  54.4111         61
  54.4297         57
  54.4482         49
  54.4668         59
  54.4854         69
  54.5040         61
  54.5225         67
  54.5411         61
  54.5597         57
  54.5783         57
  54.5969         57
  54.6154         53
  54.6340         50
  54.6526         55
  54.6712         58
  54.6897         57
  54.7083         65
  54.7269         67
  54.7455         48
  54.7640         58
  54.7826         69
  54.8012         59
  54.8198         57
  54.8383         55
  54.8569         53
  54.8755         51
  54.8941         73
  54.9126         52
  54.9312         65
  54.9498         53
  54.9684         59
  54.9869         52
  55.0055         61
  55.0241         58
  55.0427         52
  55.0612         57
  55.0798         64
  55.0984         60
  55.1170         51
  55.1355         56
  55.1541         61
  55.1727         57
  55.1913         57
  55.2098         61
  55.2284         55
  55.2470         49
  55.2656         62
  55.2841         53
  55.3027         58
  55.3213         53
  55.3399         53
  55.3585         62
  55.3770         62
  55.3956         54
  55.4142         57
  55.4328         69
  55.4513         72
  55.4699         50
  55.4885         64
  55.5071         59
  55.5256         59
  55.5442         46
  55.5628         67
  55.5814         72
  55.5999         48
  55.6185         59
  55.6371         64
  55.6557         74
  55.6742         69
  55.6928         55
  55.7114         61
  55.7300         64
  55.7485         62
  55.7671         63
  55.7857         56
  55.8043         69
  55.8228         47
  55.8414         55
  55.8600         64
  55.8786         74
  55.8971         72
  55.9157         58
  55.9343         59
  55.9529         57
  55.9714         55
  55.9900         67
  56.0086         55
  56.0272         57
  56.0457         65
  56.0643         51
  56.0829         62
  56.1015         61
  56.1201         54
  56.1386         58
  56.1572         59
  56.1758         74
  56.1944         57
  56.2129         72
  56.2315         67
  56.2501         74
  56.2687         55
  56.2872         57
  56.3058         47
  56.3244         48
  56.3430         71
  56.3615         66
  56.3801         69
  56.3987         81
  56.4173         58
  56.4358         67
  56.4544         64
  56.4730         64
  56.4916         60
  56.5101         56
  56.5287         57
  56.5473         62
  56.5659         63
  56.5844         49
  56.6030         52
  56.6216         70
  56.6402         56
  56.6587         57
  56.6773         82
  56.6959         55
  56.7145         55
  56.7330         38
  56.7516         48
  56.7702         62
  56.7888         61
  56.8073         47
  56.8259         54
  56.8445         67
  56.8631         58
  56.8817         55
  56.9002         56
  56.9188         55
  56.9374         64
  56.9560         49
  56.9745         59
  56.9931         60
  57.0117         56
  57.0303         54
  57.0488         60
  57.0674         58
  57.0860         56
  57.1046         74
  57.1231         56
  57.1417         75
  57.1603         57
  57.1789         58
  57.1974         54
  57.2160         53
  57.2346         67
  57.2532         66
  57.2717         52
  57.2903         56
  57.3089         58
  57.3275         64
  57.3460         70
  57.3646         55
  57.3832         59
  57.4018         65
  57.4203         58
  57.4389         64
  57.4575         52
  57.4761         55
  57.4946         61
  57.5132         76
  57.5318         49
  57.5504         59
  57.5689         60
  57.5875         61
  57.6061         54
  57.6247         50
  57.6433         49
  57.6618         58
  57.6804         53
  57.6990         60
  57.7176         59
  57.7361         51
  57.7547         61
  57.7733         59
  57.7919         66
  57.8104         47
  57.8290         65
  57.8476         75
  57.8662         65
  57.8847         68
  57.9033         58
  57.9219         60
  57.9405         56
  57.9590         47
  57.9776         55
  57.9962         52
  58.0148         52
  58.0333         67
  58.0519         51
  58.0705         49
  58.0891         53
  58.1076         54
  58.1262         66
  58.1448         43
  58.1634         55
  58.1819         48
  58.2005         57
  58.2191         38
  58.2377         44
  58.2562         54
  58.2748         51
  58.2934         55
  58.3120         64
  58.3305         44
  58.3491         45
  58.3677         54
  58.3863         43
  58.4049         51
  58.4234         55
  58.4420         54
  58.4606         53
  58.4792         61
  58.4977         65
  58.5163         61
  58.5349         57
  58.5535         54
  58.5720         64
  58.5906         56
  58.6092         52
  58.6278         56
  58.6463         61
  58.6649         59
  58.6835         59
  58.7021         59
  58.7206         54
  58.7392         59
  58.7578         59
  58.7764         54
  58.7949         63
  58.8135         60
  58.8321         54
  58.8507         60
  58.8692         65
  58.8878         66
  58.9064         54
  58.9250         67
  58.9435         61
  58.9621         55
  58.9807         51
  58.9993         54
  59.0178         51
  59.0364         56
  59.0550         70
  59.0736         65
  59.0921         62
  59.1107         49
  59.1293         44
  59.1479         67
  59.1664         54
  59.1850         52
  59.2036         56
  59.2222         37
  59.2408         43
  59.2593         54
  59.2779         52
  59.2965         56
  59.3151         55
  59.3336         60
  59.3522         57
  59.3708         68
  59.3894         66
  59.4079         61
  59.4265         46
  59.4451         50
  59.4637         62
  59.4822         43
  59.5008         60
  59.5194         52
  59.5380         48
  59.5565         67
  59.5751         38
  59.5937         62
  59.6123         43
  59.6308         51
  59.6494         57
  59.6680         56
  59.6866         62
  59.7051         65
  59.7237         45
  59.7423         66
  59.7609         55
  59.7794         49
  59.7980         48
  59.8166         48
  59.8352         47
  59.8537         68
  59.8723         58
  59.8909         55
  59.9095         57
  59.9280         51
  59.9466         50
  59.9652         54
  59.9838         53
  60.0024         57
