; (content of file Y:\Sam\Apurva-07-20-2022\puck1\ML_20220721_14_SJD_0_LaB6-4min.raw)
_FILEVERSION = 3
_SAMPLE = ML_20220721_14_SJD_0_LaB6-4min
_+SAMPLE = 
_SITE = USA
_USER = Administrator
_GONIOMETER_CODE = 20
; Goniometer : D8 theta/2theta, stage : Unknown
_ATTACHMENTS_CODE = 0
_GONIOMETER_RADIUS = 200.5
_FIXED_DIVSLIT = 0.6
_FIXED_SAMPLESLIT = 0
_SOLLER_SLITS = 2
_FIXED_DETSLIT = 9.55
_MONOCHROMATOR = 0
; Incident beam monochromator : None
_SOLLER_SLITS_2 = N
_THIN_FILM = N
_BETA_FILTER = Y
_FIXED_ANTISLIT = 5.89
_ANALYZER_CODE = 0
; Received beam analyzer : None
_DATEMEASURED = "25-Jul-2022 14:55:21"
_WL_UNIT = A
_WL1 = 1.5406
_WL2 = 1.54439
_WL3 = 1.39222
_WLRATIO = 0.5
_ANODE = Cu
_V4_INF_CREATOR = XRDWizard
_V4_INF_CREATOR_VERSION = V2.9.0.22
_V4_INF_WIZARD_VERSION = V2.9.0.22
_V4_INF_WIZARD_ADDINS = V2.9.0.22
_V4_INF_WIZARD_DOCTYPE = XRD
_V4_INF_OSUSER = McQueenLab
_V4_INF_USER = Administrator
_V4_INF_SITE = USA
_V4_INF_SAMPLEID = ML_20220721_14_SJD_0_LaB6-4min

; Data for range 1
_DRIVE = COUPLED
_STEPTIME = 11.28
_STEPSIZE = 0.0185756
_STEPMODE = C
_START = 5
_THETA = 2.5
_2THETA = 5
_KHI = 0
_PHI = 0
_X = 0
_Y = 0
_Z = 0
_DETECTOR = 5
; Detector type : Unknown
_DETECTORSLIT = unkn
_AUX1 = 0
_AUX2 = 0
_AUX3 = 0
_TIMESTARTED = 15
_TEMP_RATE = -1
_TEMP_DELAY = -1
_KV = 40
_MA = 40
_RANGE_WL = 1.5406
_3DPLANE = 0
_V4_ADDITIONALDETECTOR = 257
_V4_PSD2THETA = 3.3888
_V4_PSDCHANNEL1 = 0
_V4_PSDAPERTURE = 12.68
_V4_PSDTYPE = 5
_V4_PSDFIXED = 0
_V4_COUNTERS_MASK = 4096
_V4_DRIVES_MASK = 0
_V4_ENCODERS_MASK = 0
_2THETACOUNTS = 1
; 2THETA  PSD
   5.0000        285
   5.0186        277
   5.0372        276
   5.0557        264
   5.0743        263
   5.0929        267
   5.1115        250
   5.1300        252
   5.1486        267
   5.1672        277
   5.1858        240
   5.2043        241
   5.2229        255
   5.2415        257
   5.2601        275
   5.2786        276
   5.2972        229
   5.3158        259
   5.3344        253
   5.3529        245
   5.3715        229
   5.3901        215
   5.4087        224
   5.4272        230
   5.4458        232
   5.4644        239
   5.4830        257
   5.5015        229
   5.5201        208
   5.5387        242
   5.5573        192
   5.5758        217
   5.5944        227
   5.6130        237
   5.6316        222
   5.6501        229
   5.6687        208
   5.6873        211
   5.7059        221
   5.7244        223
   5.7430        225
   5.7616        212
   5.7802        195
   5.7988        241
   5.8173        220
   5.8359        238
   5.8545        193
   5.8731        215
   5.8916        221
   5.9102        207
   5.9288        235
   5.9474        208
   5.9659        248
   5.9845        202
   6.0031        194
   6.0217        181
   6.0402        185
   6.0588        189
   6.0774        209
   6.0960        208
   6.1145        168
   6.1331        197
   6.1517        214
   6.1703        189
   6.1888        183
   6.2074        196
   6.2260        179
   6.2446        178
   6.2631        172
   6.2817        185
   6.3003        197
   6.3189        180
   6.3374        161
   6.3560        177
   6.3746        176
   6.3932        181
   6.4117        166
   6.4303        172
   6.4489        173
   6.4675        174
   6.4860        206
   6.5046        174
   6.5232        175
   6.5418        176
   6.5604        190
   6.5789        170
   6.5975        185
   6.6161        168
   6.6347        169
   6.6532        153
   6.6718        146
   6.6904        185
   6.7090        178
   6.7275        183
   6.7461        180
   6.7647        196
   6.7833        177
   6.8018        162
   6.8204        178
   6.8390        176
   6.8576        175
   6.8761        192
   6.8947        178
   6.9133        166
   6.9319        169
   6.9504        150
   6.9690        154
   6.9876        156
   7.0062        170
   7.0247        164
   7.0433        182
   7.0619        182
   7.0805        199
   7.0990        166
   7.1176        157
   7.1362        152
   7.1548        175
   7.1733        187
   7.1919        147
   7.2105        179
   7.2291        165
   7.2476        159
   7.2662        149
   7.2848        147
   7.3034        152
   7.3220        144
   7.3405        166
   7.3591        170
   7.3777        140
   7.3963        148
   7.4148        169
   7.4334        178
   7.4520        169
   7.4706        163
   7.4891        162
   7.5077        176
   7.5263        162
   7.5449        152
   7.5634        157
   7.5820        153
   7.6006        184
   7.6192        147
   7.6377        197
   7.6563        180
   7.6749        187
   7.6935        183
   7.7120        177
   7.7306        150
   7.7492        186
   7.7678        160
   7.7863        172
   7.8049        159
   7.8235        181
   7.8421        174
   7.8606        183
   7.8792        163
   7.8978        200
   7.9164        183
   7.9349        148
   7.9535        170
   7.9721        194
   7.9907        177
   8.0092        189
   8.0278        196
   8.0464        203
   8.0650        187
   8.0835        185
   8.1021        170
   8.1207        170
   8.1393        175
   8.1579        190
   8.1764        173
   8.1950        174
   8.2136        185
   8.2322        169
   8.2507        190
   8.2693        187
   8.2879        192
   8.3065        191
   8.3250        197
   8.3436        186
   8.3622        202
   8.3808        207
   8.3993        171
   8.4179        186
   8.4365        204
   8.4551        211
   8.4736        205
   8.4922        199
   8.5108        192
   8.5294        213
   8.5479        196
   8.5665        206
   8.5851        205
   8.6037        185
   8.6222        190
   8.6408        189
   8.6594        179
   8.6780        187
   8.6965        208
   8.7151        198
   8.7337        225
   8.7523        214
   8.7708        197
   8.7894        199
   8.8080        248
   8.8266        211
   8.8451        199
   8.8637        207
   8.8823        214
   8.9009        239
   8.9195        210
   8.9380        225
   8.9566        219
   8.9752        210
   8.9938        218
   9.0123        205
   9.0309        209
   9.0495        217
   9.0681        197
   9.0866        227
   9.1052        222
   9.1238        210
   9.1424        205
   9.1609        217
   9.1795        214
   9.1981        242
   9.2167        204
   9.2352        208
   9.2538        245
   9.2724        228
   9.2910        241
   9.3095        229
   9.3281        244
   9.3467        214
   9.3653        208
   9.3838        212
   9.4024        225
   9.4210        216
   9.4396        236
   9.4581        219
   9.4767        214
   9.4953        214
   9.5139        213
   9.5324        222
   9.5510        207
   9.5696        199
   9.5882        209
   9.6067        270
   9.6253        236
   9.6439        219
   9.6625        232
   9.6811        224
   9.6996        227
   9.7182        242
   9.7368        255
   9.7554        221
   9.7739        245
   9.7925        240
   9.8111        270
   9.8297        262
   9.8482        268
   9.8668        243
   9.8854        256
   9.9040        232
   9.9225        251
   9.9411        232
   9.9597        260
   9.9783        283
   9.9968        258
  10.0154        230
  10.0340        255
  10.0526        219
  10.0711        256
  10.0897        233
  10.1083        248
  10.1269        252
  10.1454        262
  10.1640        245
  10.1826        246
  10.2012        239
  10.2197        224
  10.2383        241
  10.2569        246
  10.2755        245
  10.2940        224
  10.3126        239
  10.3312        256
  10.3498        245
  10.3683        234
  10.3869        224
  10.4055        264
  10.4241        238
  10.4427        238
  10.4612        240
  10.4798        240
  10.4984        208
  10.5170        239
  10.5355        252
  10.5541        232
  10.5727        237
  10.5913        235
  10.6098        215
  10.6284        223
  10.6470        240
  10.6656        262
  10.6841        251
  10.7027        254
  10.7213        241
  10.7399        230
  10.7584        279
  10.7770        262
  10.7956        243
  10.8142        238
  10.8327        259
  10.8513        256
  10.8699        247
  10.8885        231
  10.9070        243
  10.9256        249
  10.9442        224
  10.9628        220
  10.9813        242
  10.9999        230
  11.0185        260
  11.0371        260
  11.0556        254
  11.0742        243
  11.0928        238
  11.1114        240
  11.1299        222
  11.1485        236
  11.1671        255
  11.1857        213
  11.2043        243
  11.2228        222
  11.2414        239
  11.2600        220
  11.2786        239
  11.2971        267
  11.3157        257
  11.3343        230
  11.3529        234
  11.3714        231
  11.3900        241
  11.4086        222
  11.4272        254
  11.4457        233
  11.4643        261
  11.4829        249
  11.5015        250
  11.5200        265
  11.5386        278
  11.5572        240
  11.5758        223
  11.5943        250
  11.6129        247
  11.6315        240
  11.6501        236
  11.6686        233
  11.6872        233
  11.7058        254
  11.7244        220
  11.7429        241
  11.7615        229
  11.7801        227
  11.7987        245
  11.8172        251
  11.8358        228
  11.8544        246
  11.8730        241
  11.8915        219
  11.9101        225
  11.9287        250
  11.9473        245
  11.9659        208
  11.9844        221
  12.0030        243
  12.0216        245
  12.0402        241
  12.0587        239
  12.0773        228
  12.0959        254
  12.1145        225
  12.1330        221
  12.1516        231
  12.1702        249
  12.1888        222
  12.2073        234
  12.2259        229
  12.2445        236
  12.2631        223
  12.2816        232
  12.3002        220
  12.3188        202
  12.3374        213
  12.3559        211
  12.3745        237
  12.3931        198
  12.4117        187
  12.4302        197
  12.4488        221
  12.4674        232
  12.4860        228
  12.5045        213
  12.5231        234
  12.5417        232
  12.5603        222
  12.5788        227
  12.5974        210
  12.6160        210
  12.6346        213
  12.6531        235
  12.6717        238
  12.6903        184
  12.7089        200
  12.7274        202
  12.7460        231
  12.7646        225
  12.7832        179
  12.8018        222
  12.8203        216
  12.8389        248
  12.8575        194
  12.8761        226
  12.8946        202
  12.9132        204
  12.9318        219
  12.9504        205
  12.9689        189
  12.9875        224
  13.0061        211
  13.0247        197
  13.0432        198
  13.0618        229
  13.0804        213
  13.0990        200
  13.1175        200
  13.1361        220
  13.1547        226
  13.1733        192
  13.1918        192
  13.2104        201
  13.2290        193
  13.2476        225
  13.2661        223
  13.2847        189
  13.3033        198
  13.3219        221
  13.3404        212
  13.3590        213
  13.3776        207
  13.3962        180
  13.4147        210
  13.4333        187
  13.4519        203
  13.4705        198
  13.4890        195
  13.5076        155
  13.5262        191
  13.5448        194
  13.5634        169
  13.5819        192
  13.6005        189
  13.6191        188
  13.6377        182
  13.6562        204
  13.6748        221
  13.6934        189
  13.7120        178
  13.7305        195
  13.7491        186
  13.7677        188
  13.7863        193
  13.8048        203
  13.8234        193
  13.8420        203
  13.8606        193
  13.8791        161
  13.8977        188
  13.9163        207
  13.9349        187
  13.9534        187
  13.9720        184
  13.9906        211
  14.0092        197
  14.0277        189
  14.0463        183
  14.0649        198
  14.0835        192
  14.1020        168
  14.1206        188
  14.1392        175
  14.1578        209
  14.1763        194
  14.1949        173
  14.2135        176
  14.2321        181
  14.2506        169
  14.2692        214
  14.2878        197
  14.3064        179
  14.3250        158
  14.3435        190
  14.3621        190
  14.3807        188
  14.3993        179
  14.4178        164
  14.4364        198
  14.4550        170
  14.4736        180
  14.4921        147
  14.5107        179
  14.5293        175
  14.5479        167
  14.5664        199
  14.5850        161
  14.6036        191
  14.6222        183
  14.6407        164
  14.6593        162
  14.6779        174
  14.6965        192
  14.7150        172
  14.7336        153
  14.7522        148
  14.7708        165
  14.7893        160
  14.8079        170
  14.8265        157
  14.8451        163
  14.8636        184
  14.8822        173
  14.9008        148
  14.9194        168
  14.9379        168
  14.9565        170
  14.9751        157
  14.9937        172
  15.0122        185
  15.0308        164
  15.0494        146
  15.0680        165
  15.0866        174
  15.1051        163
  15.1237        152
  15.1423        163
  15.1609        163
  15.1794        162
  15.1980        136
  15.2166        150
  15.2352        185
  15.2537        161
  15.2723        177
  15.2909        153
  15.3095        167
  15.3280        170
  15.3466        164
  15.3652        160
  15.3838        166
  15.4023        154
  15.4209        172
  15.4395        135
  15.4581        167
  15.4766        174
  15.4952        170
  15.5138        137
  15.5324        152
  15.5509        153
  15.5695        159
  15.5881        144
  15.6067        173
  15.6252        173
  15.6438        194
  15.6624        191
  15.6810        170
  15.6995        173
  15.7181        161
  15.7367        165
  15.7553        168
  15.7738        181
  15.7924        173
  15.8110        165
  15.8296        166
  15.8482        143
  15.8667        166
  15.8853        166
  15.9039        194
  15.9225        139
  15.9410        156
  15.9596        166
  15.9782        160
  15.9968        162
  16.0153        167
  16.0339        173
  16.0525        194
  16.0711        151
  16.0896        156
  16.1082        168
  16.1268        173
  16.1454        160
  16.1639        161
  16.1825        159
  16.2011        169
  16.2197        163
  16.2382        166
  16.2568        161
  16.2754        136
  16.2940        164
  16.3125        163
  16.3311        150
  16.3497        152
  16.3683        159
  16.3868        169
  16.4054        164
  16.4240        155
  16.4426        163
  16.4611        159
  16.4797        164
  16.4983        166
  16.5169        143
  16.5354        165
  16.5540        160
  16.5726        168
  16.5912        175
  16.6097        167
  16.6283        156
  16.6469        176
  16.6655        172
  16.6841        130
  16.7026        150
  16.7212        152
  16.7398        156
  16.7584        153
  16.7769        162
  16.7955        153
  16.8141        170
  16.8327        206
  16.8512        182
  16.8698        154
  16.8884        159
  16.9070        152
  16.9255        182
  16.9441        176
  16.9627        186
  16.9813        166
  16.9998        162
  17.0184        150
  17.0370        155
  17.0556        153
  17.0741        133
  17.0927        179
  17.1113        153
  17.1299        169
  17.1484        151
  17.1670        170
  17.1856        195
  17.2042        183
  17.2227        155
  17.2413        159
  17.2599        172
  17.2785        183
  17.2970        170
  17.3156        161
  17.3342        161
  17.3528        149
  17.3713        170
  17.3899        169
  17.4085        162
  17.4271        156
  17.4457        155
  17.4642        169
  17.4828        158
  17.5014        164
  17.5200        174
  17.5385        165
  17.5571        155
  17.5757        181
  17.5943        144
  17.6128        171
  17.6314        159
  17.6500        168
  17.6686        164
  17.6871        178
  17.7057        166
  17.7243        169
  17.7429        175
  17.7614        144
  17.7800        167
  17.7986        163
  17.8172        167
  17.8357        165
  17.8543        151
  17.8729        168
  17.8915        145
  17.9100        193
  17.9286        128
  17.9472        169
  17.9658        172
  17.9843        168
  18.0029        184
  18.0215        171
  18.0401        175
  18.0586        166
  18.0772        189
  18.0958        174
  18.1144        175
  18.1329        137
  18.1515        171
  18.1701        193
  18.1887        197
  18.2073        191
  18.2258        175
  18.2444        179
  18.2630        167
  18.2816        166
  18.3001        169
  18.3187        148
  18.3373        152
  18.3559        162
  18.3744        169
  18.3930        173
  18.4116        171
  18.4302        167
  18.4487        151
  18.4673        155
  18.4859        172
  18.5045        188
  18.5230        154
  18.5416        168
  18.5602        180
  18.5788        180
  18.5973        175
  18.6159        163
  18.6345        167
  18.6531        172
  18.6716        185
  18.6902        176
  18.7088        149
  18.7274        184
  18.7459        168
  18.7645        156
  18.7831        158
  18.8017        168
  18.8202        184
  18.8388        163
  18.8574        187
  18.8760        165
  18.8945        168
  18.9131        187
  18.9317        159
  18.9503        164
  18.9689        155
  18.9874        195
  19.0060        160
  19.0246        140
  19.0432        179
  19.0617        185
  19.0803        194
  19.0989        178
  19.1175        156
  19.1360        175
  19.1546        209
  19.1732        185
  19.1918        179
  19.2103        164
  19.2289        170
  19.2475        171
  19.2661        198
  19.2846        177
  19.3032        172
  19.3218        171
  19.3404        203
  19.3589        190
  19.3775        146
  19.3961        156
  19.4147        171
  19.4332        183
  19.4518        172
  19.4704        162
  19.4890        182
  19.5075        183
  19.5261        191
  19.5447        181
  19.5633        171
  19.5818        140
  19.6004        167
  19.6190        179
  19.6376        178
  19.6561        166
  19.6747        166
  19.6933        177
  19.7119        207
  19.7305        201
  19.7490        173
  19.7676        164
  19.7862        172
  19.8048        181
  19.8233        179
  19.8419        160
  19.8605        156
  19.8791        175
  19.8976        162
  19.9162        176
  19.9348        195
  19.9534        162
  19.9719        175
  19.9905        185
  20.0091        176
  20.0277        195
  20.0462        171
  20.0648        190
  20.0834        192
  20.1020        193
  20.1205        152
  20.1391        211
  20.1577        177
  20.1763        159
  20.1948        157
  20.2134        179
  20.2320        219
  20.2506        179
  20.2691        185
  20.2877        192
  20.3063        171
  20.3249        190
  20.3434        178
  20.3620        192
  20.3806        172
  20.3992        200
  20.4177        197
  20.4363        178
  20.4549        177
  20.4735        176
  20.4921        187
  20.5106        187
  20.5292        179
  20.5478        200
  20.5664        189
  20.5849        190
  20.6035        167
  20.6221        184
  20.6407        206
  20.6592        186
  20.6778        182
  20.6964        193
  20.7150        176
  20.7335        197
  20.7521        196
  20.7707        166
  20.7893        174
  20.8078        189
  20.8264        199
  20.8450        181
  20.8636        185
  20.8821        168
  20.9007        149
  20.9193        190
  20.9379        185
  20.9564        197
  20.9750        171
  20.9936        175
  21.0122        190
  21.0307        218
  21.0493        201
  21.0679        181
  21.0865        196
  21.1050        184
  21.1236        202
  21.1422        246
  21.1608        238
  21.1793        263
  21.1979        284
  21.2165        320
  21.2351        304
  21.2537        325
  21.2722        287
  21.2908        297
  21.3094        284
  21.3280        398
  21.3465        510
  21.3651        522
  21.3837        407
  21.4023        387
  21.4208        365
  21.4394        274
  21.4580        207
  21.4766        223
  21.4951        239
  21.5137        196
  21.5323        206
  21.5509        214
  21.5694        223
  21.5880        172
  21.6066        193
  21.6252        207
  21.6437        198
  21.6623        195
  21.6809        187
  21.6995        197
  21.7180        189
  21.7366        206
  21.7552        189
  21.7738        207
  21.7923        204
  21.8109        207
  21.8295        187
  21.8481        210
  21.8666        202
  21.8852        169
  21.9038        198
  21.9224        177
  21.9409        200
  21.9595        222
  21.9781        198
  21.9967        232
  22.0152        164
  22.0338        195
  22.0524        182
  22.0710        189
  22.0896        186
  22.1081        204
  22.1267        205
  22.1453        200
  22.1639        205
  22.1824        195
  22.2010        194
  22.2196        183
  22.2382        191
  22.2567        196
  22.2753        199
  22.2939        199
  22.3125        195
  22.3310        193
  22.3496        192
  22.3682        210
  22.3868        223
  22.4053        195
  22.4239        194
  22.4425        204
  22.4611        215
  22.4796        202
  22.4982        222
  22.5168        194
  22.5354        204
  22.5539        211
  22.5725        194
  22.5911        210
  22.6097        211
  22.6282        211
  22.6468        175
  22.6654        180
  22.6840        182
  22.7025        199
  22.7211        202
  22.7397        178
  22.7583        207
  22.7768        185
  22.7954        204
  22.8140        193
  22.8326        212
  22.8512        190
  22.8697        196
  22.8883        191
  22.9069        205
  22.9255        216
  22.9440        220
  22.9626        211
  22.9812        220
  22.9998        189
  23.0183        211
  23.0369        187
  23.0555        185
  23.0741        213
  23.0926        222
  23.1112        213
  23.1298        187
  23.1484        212
  23.1669        202
  23.1855        198
  23.2041        183
  23.2227        204
  23.2412        156
  23.2598        182
  23.2784        196
  23.2970        211
  23.3155        230
  23.3341        203
  23.3527        216
  23.3713        188
  23.3898        208
  23.4084        188
  23.4270        214
  23.4456        197
  23.4641        187
  23.4827        216
  23.5013        200
  23.5199        190
  23.5384        200
  23.5570        201
  23.5756        209
  23.5942        200
  23.6128        202
  23.6313        191
  23.6499        185
  23.6685        215
  23.6871        205
  23.7056        202
  23.7242        214
  23.7428        205
  23.7614        186
  23.7799        217
  23.7985        196
  23.8171        206
  23.8357        186
  23.8542        199
  23.8728        199
  23.8914        195
  23.9100        204
  23.9285        189
  23.9471        198
  23.9657        209
  23.9843        201
  24.0028        195
  24.0214        218
  24.0400        220
  24.0586        212
  24.0771        196
  24.0957        214
  24.1143        213
  24.1329        209
  24.1514        215
  24.1700        217
  24.1886        193
  24.2072        206
  24.2257        204
  24.2443        201
  24.2629        241
  24.2815        231
  24.3000        233
  24.3186        223
  24.3372        233
  24.3558        220
  24.3744        207
  24.3929        194
  24.4115        245
  24.4301        199
  24.4487        201
  24.4672        189
  24.4858        219
  24.5044        219
  24.5230        196
  24.5415        209
  24.5601        188
  24.5787        194
  24.5973        199
  24.6158        242
  24.6344        207
  24.6530        212
  24.6716        172
  24.6901        208
  24.7087        194
  24.7273        205
  24.7459        167
  24.7644        226
  24.7830        198
  24.8016        228
  24.8202        196
  24.8387        191
  24.8573        201
  24.8759        206
  24.8945        198
  24.9130        193
  24.9316        210
  24.9502        216
  24.9688        180
  24.9873        194
  25.0059        206
  25.0245        212
  25.0431        188
  25.0616        222
  25.0802        211
  25.0988        182
  25.1174        191
  25.1360        224
  25.1545        207
  25.1731        188
  25.1917        217
  25.2103        208
  25.2288        196
  25.2474        173
  25.2660        197
  25.2846        200
  25.3031        212
  25.3217        202
  25.3403        191
  25.3589        207
  25.3774        213
  25.3960        176
  25.4146        210
  25.4332        214
  25.4517        186
  25.4703        200
  25.4889        183
  25.5075        189
  25.5260        201
  25.5446        175
  25.5632        192
  25.5818        191
  25.6003        171
  25.6189        175
  25.6375        189
  25.6561        218
  25.6746        225
  25.6932        201
  25.7118        194
  25.7304        198
  25.7489        191
  25.7675        181
  25.7861        184
  25.8047        199
  25.8232        223
  25.8418        217
  25.8604        191
  25.8790        201
  25.8976        208
  25.9161        194
  25.9347        187
  25.9533        216
  25.9719        179
  25.9904        199
  26.0090        202
  26.0276        202
  26.0462        191
  26.0647        189
  26.0833        204
  26.1019        177
  26.1205        188
  26.1390        179
  26.1576        188
  26.1762        193
  26.1948        203
  26.2133        169
  26.2319        192
  26.2505        192
  26.2691        200
  26.2876        200
  26.3062        164
  26.3248        189
  26.3434        183
  26.3619        172
  26.3805        213
  26.3991        193
  26.4177        162
  26.4362        223
  26.4548        198
  26.4734        217
  26.4920        190
  26.5105        172
  26.5291        184
  26.5477        180
  26.5663        171
  26.5848        188
  26.6034        182
  26.6220        201
  26.6406        202
  26.6591        213
  26.6777        171
  26.6963        208
  26.7149        178
  26.7335        196
  26.7520        185
  26.7706        181
  26.7892        215
  26.8078        178
  26.8263        191
  26.8449        192
  26.8635        181
  26.8821        196
  26.9006        197
  26.9192        178
  26.9378        187
  26.9564        184
  26.9749        192
  26.9935        199
  27.0121        205
  27.0307        205
  27.0492        175
  27.0678        185
  27.0864        194
  27.1050        196
  27.1235        189
  27.1421        209
  27.1607        218
  27.1793        249
  27.1978        222
  27.2164        254
  27.2350        224
  27.2536        232
  27.2721        210
  27.2907        200
  27.3093        176
  27.3279        205
  27.3464        179
  27.3650        203
  27.3836        186
  27.4022        190
  27.4207        198
  27.4393        205
  27.4579        206
  27.4765        184
  27.4951        181
  27.5136        171
  27.5322        186
  27.5508        172
  27.5694        205
  27.5879        179
  27.6065        177
  27.6251        179
  27.6437        174
  27.6622        177
  27.6808        166
  27.6994        169
  27.7180        154
  27.7365        175
  27.7551        176
  27.7737        165
  27.7923        148
  27.8108        186
  27.8294        173
  27.8480        183
  27.8666        162
  27.8851        163
  27.9037        174
  27.9223        174
  27.9409        180
  27.9594        186
  27.9780        148
  27.9966        165
  28.0152        143
  28.0337        160
  28.0523        190
  28.0709        177
  28.0895        171
  28.1080        169
  28.1266        165
  28.1452        206
  28.1638        172
  28.1823        165
  28.2009        169
  28.2195        188
  28.2381        165
  28.2567        180
  28.2752        193
  28.2938        177
  28.3124        155
  28.3310        194
  28.3495        198
  28.3681        145
  28.3867        164
  28.4053        160
  28.4238        188
  28.4424        183
  28.4610        167
  28.4796        174
  28.4981        166
  28.5167        169
  28.5353        196
  28.5539        175
  28.5724        163
  28.5910        164
  28.6096        182
  28.6282        164
  28.6467        164
  28.6653        158
  28.6839        166
  28.7025        171
  28.7210        171
  28.7396        163
  28.7582        173
  28.7768        167
  28.7953        155
  28.8139        178
  28.8325        166
  28.8511        167
  28.8696        201
  28.8882        164
  28.9068        152
  28.9254        175
  28.9439        137
  28.9625        176
  28.9811        168
  28.9997        167
  29.0183        143
  29.0368        176
  29.0554        169
  29.0740        170
  29.0926        181
  29.1111        179
  29.1297        153
  29.1483        192
  29.1669        169
  29.1854        175
  29.2040        174
  29.2226        155
  29.2412        155
  29.2597        163
  29.2783        165
  29.2969        159
  29.3155        164
  29.3340        138
  29.3526        154
  29.3712        163
  29.3898        145
  29.4083        142
  29.4269        138
  29.4455        169
  29.4641        173
  29.4826        203
  29.5012        183
  29.5198        166
  29.5384        144
  29.5569        149
  29.5755        174
  29.5941        171
  29.6127        139
  29.6312        174
  29.6498        154
  29.6684        186
  29.6870        153
  29.7055        166
  29.7241        144
  29.7427        158
  29.7613        149
  29.7799        144
  29.7984        172
  29.8170        155
  29.8356        151
  29.8542        166
  29.8727        161
  29.8913        159
  29.9099        173
  29.9285        159
  29.9470        180
  29.9656        159
  29.9842        169
  30.0028        172
  30.0213        151
  30.0399        179
  30.0585        160
  30.0771        131
  30.0956        135
  30.1142        144
  30.1328        146
  30.1514        175
  30.1699        161
  30.1885        165
  30.2071        148
  30.2257        166
  30.2442        160
  30.2628        150
  30.2814        185
  30.3000        182
  30.3185        173
  30.3371        197
  30.3557        259
  30.3743        335
  30.3928        332
  30.4114        267
  30.4300        235
  30.4486        235
  30.4671        251
  30.4857        221
  30.5043        197
  30.5229        151
  30.5415        169
  30.5600        177
  30.5786        168
  30.5972        148
  30.6158        165
  30.6343        161
  30.6529        175
  30.6715        144
  30.6901        177
  30.7086        142
  30.7272        162
  30.7458        147
  30.7644        129
  30.7829        135
  30.8015        142
  30.8201        155
  30.8387        154
  30.8572        161
  30.8758        134
  30.8944        139
  30.9130        136
  30.9315        133
  30.9501        162
  30.9687        157
  30.9873        137
  31.0058        143
  31.0244        151
  31.0430        153
  31.0616        133
  31.0801        123
  31.0987        145
  31.1173        151
  31.1359        144
  31.1544        152
  31.1730        166
  31.1916        142
  31.2102        141
  31.2287        127
  31.2473        154
  31.2659        132
  31.2845        134
  31.3030        140
  31.3216        147
  31.3402        139
  31.3588        154
  31.3774        162
  31.3959        137
  31.4145        140
  31.4331        150
  31.4517        137
  31.4702        129
  31.4888        132
  31.5074        147
  31.5260        141
  31.5445        140
  31.5631        116
  31.5817        134
  31.6003        136
  31.6188        144
  31.6374        146
  31.6560        141
  31.6746        141
  31.6931        153
  31.7117        137
  31.7303        136
  31.7489        129
  31.7674        139
  31.7860        131
  31.8046        122
  31.8232        124
  31.8417        135
  31.8603        148
  31.8789        132
  31.8975        134
  31.9160        150
  31.9346        135
  31.9532        124
  31.9718        153
  31.9903        134
  32.0089        128
  32.0275        131
  32.0461        139
  32.0646        122
  32.0832        147
  32.1018        130
  32.1204        142
  32.1390        142
  32.1575        142
  32.1761        144
  32.1947        115
  32.2133        139
  32.2318        140
  32.2504        147
  32.2690        132
  32.2876        124
  32.3061        162
  32.3247        154
  32.3433        136
  32.3619        122
  32.3804        131
  32.3990        134
  32.4176        177
  32.4362        164
  32.4547        156
  32.4733        153
  32.4919        159
  32.5105        150
  32.5290        154
  32.5476        165
  32.5662        122
  32.5848        136
  32.6033        124
  32.6219        137
  32.6405        138
  32.6591        131
  32.6776        125
  32.6962        127
  32.7148        140
  32.7334        124
  32.7519        123
  32.7705        143
  32.7891        127
  32.8077        133
  32.8262        128
  32.8448        134
  32.8634        135
  32.8820        155
  32.9006        124
  32.9191        116
  32.9377        123
  32.9563        141
  32.9749        119
  32.9934        142
  33.0120        142
  33.0306        115
  33.0492        134
  33.0677        110
  33.0863        119
  33.1049        124
  33.1235        113
  33.1420        112
  33.1606        125
  33.1792        135
  33.1978        136
  33.2163        122
  33.2349        146
  33.2535        123
  33.2721        137
  33.2906        104
  33.3092         91
  33.3278        106
  33.3464        125
  33.3649        114
  33.3835        108
  33.4021         97
  33.4207        124
  33.4392        114
  33.4578        115
  33.4764        137
  33.4950        118
  33.5135        117
  33.5321        135
  33.5507        115
  33.5693        109
  33.5878        120
  33.6064        123
  33.6250        124
  33.6436        116
  33.6622        129
  33.6807        106
  33.6993        141
  33.7179        107
  33.7365        113
  33.7550         87
  33.7736        123
  33.7922        125
  33.8108        112
  33.8293        125
  33.8479        125
  33.8665        135
  33.8851        102
  33.9036        122
  33.9222        118
  33.9408        113
  33.9594        129
  33.9779        121
  33.9965        120
  34.0151        129
  34.0337        106
  34.0522        124
  34.0708        120
  34.0894        115
  34.1080        139
  34.1265        108
  34.1451        101
  34.1637        113
  34.1823        116
  34.2008        118
  34.2194        100
  34.2380        126
  34.2566        125
  34.2751        117
  34.2937        117
  34.3123        119
  34.3309        112
  34.3494         99
  34.3680        130
  34.3866        102
  34.4052        118
  34.4238        105
  34.4423        109
  34.4609         99
  34.4795        137
  34.4981        102
  34.5166        103
  34.5352        112
  34.5538        112
  34.5724        123
  34.5909        127
  34.6095        132
  34.6281        129
  34.6467        113
  34.6652        109
  34.6838        133
  34.7024        144
  34.7210        148
  34.7395        159
  34.7581        156
  34.7767        164
  34.7953        132
  34.8138        151
  34.8324        131
  34.8510        150
  34.8696        145
  34.8881        132
  34.9067        126
  34.9253        119
  34.9439        132
  34.9624        115
  34.9810        109
  34.9996        118
  35.0182        113
  35.0367        112
  35.0553        107
  35.0739         83
  35.0925        132
  35.1110        106
  35.1296        115
  35.1482        115
  35.1668        119
  35.1854         92
  35.2039        100
  35.2225        116
  35.2411        101
  35.2597        127
  35.2782        112
  35.2968         94
  35.3154        101
  35.3340         91
  35.3525        102
  35.3711        103
  35.3897        106
  35.4083         98
  35.4268        103
  35.4454        111
  35.4640        103
  35.4826        107
  35.5011         80
  35.5197         95
  35.5383         94
  35.5569        124
  35.5754        102
  35.5940         95
  35.6126        117
  35.6312        100
  35.6497        109
  35.6683         92
  35.6869         95
  35.7055        102
  35.7240         98
  35.7426         80
  35.7612         95
  35.7798         95
  35.7983        112
  35.8169        109
  35.8355        118
  35.8541         99
  35.8726         95
  35.8912        113
  35.9098        112
  35.9284         93
  35.9469         87
  35.9655        113
  35.9841         98
  36.0027         86
  36.0213         99
  36.0398        115
  36.0584        115
  36.0770         97
  36.0956        106
  36.1141         98
  36.1327        101
  36.1513         94
  36.1699        103
  36.1884         93
  36.2070        101
  36.2256        101
  36.2442        107
  36.2627        113
  36.2813         83
  36.2999         90
  36.3185         98
  36.3370        102
  36.3556        109
  36.3742        105
  36.3928        117
  36.4113         85
  36.4299        111
  36.4485         85
  36.4671         86
  36.4856        109
  36.5042         91
  36.5228         76
  36.5414         89
  36.5599         96
  36.5785         81
  36.5971        109
  36.6157         89
  36.6342         92
  36.6528         87
  36.6714         96
  36.6900        106
  36.7085         78
  36.7271         89
  36.7457         78
  36.7643         82
  36.7829         90
  36.8014         97
  36.8200         85
  36.8386         74
  36.8572         83
  36.8757        105
  36.8943         95
  36.9129        105
  36.9315         90
  36.9500         98
  36.9686         76
  36.9872         85
  37.0058        125
  37.0243         83
  37.0429         97
  37.0615        102
  37.0801         88
  37.0986        107
  37.1172        103
  37.1358         99
  37.1544        103
  37.1729         88
  37.1915         96
  37.2101        101
  37.2287         94
  37.2472         77
  37.2658         85
  37.2844         98
  37.3030         88
  37.3215        105
  37.3401         95
  37.3587        100
  37.3773        127
  37.3958        117
  37.4144        129
  37.4330        130
  37.4516        159
  37.4701        144
  37.4887        116
  37.5073        111
  37.5259        129
  37.5445        159
  37.5630        121
  37.5816         92
  37.6002         90
  37.6188        105
  37.6373         87
  37.6559         83
  37.6745         81
  37.6931         80
  37.7116         83
  37.7302         87
  37.7488         91
  37.7674         81
  37.7859         95
  37.8045         68
  37.8231         82
  37.8417         71
  37.8602         87
  37.8788        111
  37.8974         85
  37.9160         89
  37.9345         92
  37.9531         81
  37.9717         77
  37.9903         85
  38.0088         83
  38.0274         81
  38.0460         87
  38.0646         73
  38.0831         72
  38.1017         87
  38.1203         94
  38.1389         78
  38.1574         77
  38.1760         84
  38.1946         84
  38.2132         85
  38.2317         89
  38.2503         79
  38.2689         87
  38.2875        105
  38.3061         81
  38.3246         92
  38.3432         79
  38.3618         77
  38.3804         83
  38.3989         82
  38.4175         89
  38.4361         82
  38.4547         90
  38.4732         74
  38.4918         70
  38.5104         87
  38.5290         82
  38.5475         72
  38.5661         89
  38.5847        102
  38.6033         79
  38.6218        100
  38.6404         77
  38.6590        100
  38.6776         85
  38.6961         62
  38.7147         87
  38.7333         85
  38.7519         87
  38.7704         90
  38.7890         88
  38.8076         81
  38.8262         91
  38.8447         80
  38.8633         88
  38.8819        102
  38.9005         98
  38.9190         73
  38.9376         87
  38.9562         82
  38.9748         83
  38.9933         80
  39.0119         99
  39.0305         79
  39.0491         73
  39.0677         81
  39.0862         84
  39.1048         85
  39.1234         95
  39.1420         94
  39.1605         72
  39.1791         94
  39.1977         88
  39.2163         83
  39.2348         72
  39.2534         70
  39.2720         93
  39.2906         81
  39.3091         78
  39.3277         77
  39.3463        100
  39.3649         81
  39.3834         73
  39.4020         71
  39.4206         91
  39.4392         73
  39.4577         69
  39.4763         80
  39.4949         65
  39.5135         83
  39.5320        104
  39.5506         95
  39.5692         82
  39.5878         77
  39.6063         77
  39.6249         67
  39.6435         69
  39.6621         75
  39.6806         80
  39.6992         89
  39.7178         89
  39.7364         68
  39.7549         78
  39.7735         59
  39.7921         77
  39.8107         98
  39.8293         89
  39.8478         67
  39.8664         86
  39.8850         72
  39.9036         81
  39.9221         63
  39.9407         87
  39.9593         79
  39.9779         92
  39.9964         64
  40.0150         87
  40.0336         72
  40.0522         93
  40.0707        100
  40.0893         71
  40.1079         77
  40.1265         80
  40.1450         82
  40.1636         79
  40.1822         69
  40.2008         56
  40.2193         86
  40.2379         78
  40.2565         66
  40.2751         76
  40.2936         81
  40.3122         70
  40.3308         89
  40.3494         76
  40.3679         74
  40.3865         67
  40.4051         78
  40.4237         87
  40.4422         83
  40.4608         90
  40.4794         73
  40.4980         87
  40.5165         74
  40.5351         89
  40.5537         78
  40.5723         75
  40.5908         98
  40.6094         84
  40.6280         74
  40.6466         74
  40.6652         61
  40.6837         89
  40.7023         94
  40.7209         85
  40.7395         98
  40.7580         96
  40.7766         94
  40.7952         86
  40.8138         72
  40.8323         94
  40.8509         68
  40.8695         88
  40.8881         92
  40.9066         86
  40.9252         92
  40.9438         99
  40.9624         76
  40.9809         90
  40.9995         94
  41.0181         85
  41.0367         75
  41.0552         80
  41.0738         75
  41.0924         85
  41.1110         73
  41.1295         70
  41.1481         69
  41.1667         66
  41.1853         82
  41.2038         70
  41.2224         78
  41.2410         81
  41.2596         67
  41.2781         75
  41.2967         83
  41.3153         76
  41.3339         69
  41.3524         80
  41.3710         83
  41.3896         80
  41.4082         91
  41.4268         76
  41.4453         75
  41.4639         70
  41.4825         85
  41.5011         81
  41.5196         75
  41.5382         68
  41.5568         81
  41.5754         72
  41.5939         69
  41.6125         74
  41.6311         84
  41.6497         76
  41.6682         74
  41.6868         75
  41.7054         72
  41.7240         78
  41.7425         75
  41.7611         86
  41.7797         70
  41.7983         71
  41.8168         67
  41.8354         61
  41.8540         67
  41.8726         67
  41.8911         73
  41.9097         77
  41.9283         76
  41.9469         74
  41.9654         76
  41.9840         72
  42.0026         89
  42.0212         93
  42.0397         85
  42.0583         78
  42.0769         69
  42.0955         69
  42.1140         77
  42.1326         73
  42.1512         78
  42.1698         69
  42.1884         88
  42.2069         64
  42.2255         70
  42.2441         82
  42.2627         88
  42.2812         78
  42.2998         72
  42.3184         68
  42.3370         82
  42.3555         83
  42.3741         69
  42.3927         79
  42.4113         81
  42.4298         73
  42.4484         76
  42.4670         70
  42.4856         61
  42.5041         72
  42.5227         70
  42.5413         61
  42.5599         74
  42.5784         74
  42.5970         80
  42.6156         77
  42.6342         75
  42.6527         77
  42.6713         63
  42.6899         78
  42.7085         62
  42.7270         75
  42.7456         88
  42.7642         75
  42.7828         83
  42.8013         74
  42.8199         74
  42.8385         66
  42.8571         77
  42.8756         75
  42.8942         76
  42.9128         91
  42.9314         78
  42.9500         67
  42.9685         89
  42.9871         77
  43.0057         70
  43.0243         72
  43.0428         93
  43.0614         70
  43.0800         88
  43.0986         77
  43.1171         65
  43.1357         69
  43.1543         82
  43.1729         94
  43.1914         78
  43.2100         88
  43.2286        113
  43.2472         72
  43.2657         93
  43.2843         94
  43.3029         97
  43.3215         94
  43.3400         72
  43.3586         86
  43.3772         90
  43.3958         94
  43.4143         82
  43.4329         72
  43.4515         71
  43.4701         84
  43.4886        119
  43.5072        153
  43.5258        117
  43.5444         82
  43.5629         79
  43.5815         82
  43.6001         95
  43.6187         96
  43.6372        115
  43.6558         87
  43.6744         77
  43.6930         81
  43.7116         76
  43.7301         98
  43.7487         77
  43.7673         84
  43.7859         67
  43.8044         81
  43.8230         67
  43.8416         81
  43.8602         66
  43.8787         84
  43.8973         66
  43.9159         69
  43.9345         78
  43.9530         67
  43.9716         71
  43.9902         69
  44.0088         67
  44.0273         76
  44.0459         74
  44.0645         67
  44.0831         76
  44.1016         86
  44.1202         74
  44.1388         82
  44.1574         79
  44.1759         80
  44.1945         69
  44.2131         66
  44.2317         74
  44.2502         88
  44.2688         85
  44.2874         77
  44.3060         70
  44.3245         66
  44.3431         71
  44.3617         82
  44.3803         83
  44.3988         86
  44.4174         76
  44.4360         61
  44.4546         67
  44.4732         75
  44.4917         86
  44.5103         76
  44.5289         79
  44.5475         74
  44.5660         85
  44.5846         76
  44.6032         93
  44.6218         71
  44.6403         74
  44.6589         83
  44.6775         81
  44.6961         72
  44.7146         85
  44.7332         80
  44.7518         86
  44.7704         83
  44.7889         82
  44.8075         69
  44.8261         71
  44.8447         94
  44.8632         86
  44.8818         85
  44.9004         82
  44.9190         82
  44.9375         67
  44.9561         77
  44.9747         85
  44.9933         80
  45.0118         68
  45.0304         76
  45.0490         95
  45.0676         78
  45.0861         73
  45.1047         60
  45.1233         79
  45.1419         69
  45.1604         79
  45.1790         74
  45.1976         83
  45.2162         70
  45.2347         80
  45.2533         78
  45.2719         76
  45.2905         76
  45.3091         82
  45.3276         57
  45.3462         67
  45.3648         69
  45.3834         64
  45.4019         78
  45.4205         69
  45.4391         74
  45.4577         64
  45.4762         69
  45.4948         55
  45.5134         73
  45.5320         75
  45.5505         67
  45.5691         58
  45.5877         69
  45.6063         63
  45.6248         69
  45.6434         73
  45.6620         61
  45.6806         72
  45.6991         76
  45.7177         75
  45.7363         75
  45.7549         72
  45.7734         64
  45.7920         83
  45.8106         73
  45.8292         77
  45.8477         71
  45.8663         60
  45.8849         71
  45.9035         57
  45.9220         75
  45.9406         71
  45.9592         61
  45.9778         59
  45.9963         69
  46.0149         60
  46.0335         65
  46.0521         68
  46.0707         61
  46.0892         67
  46.1078         65
  46.1264         78
  46.1450         77
  46.1635         81
  46.1821         67
  46.2007         63
  46.2193         73
  46.2378         69
  46.2564         39
  46.2750         63
  46.2936         76
  46.3121         65
  46.3307         71
  46.3493         81
  46.3679         69
  46.3864         61
  46.4050         49
  46.4236         63
  46.4422         71
  46.4607         77
  46.4793         62
  46.4979         66
  46.5165         66
  46.5350         54
  46.5536         85
  46.5722         61
  46.5908         57
  46.6093         56
  46.6279         67
  46.6465         69
  46.6651         57
  46.6836         61
  46.7022         64
  46.7208         61
  46.7394         63
  46.7579         68
  46.7765         59
  46.7951         73
  46.8137         63
  46.8323         72
  46.8508         63
  46.8694         61
  46.8880         71
  46.9066         65
  46.9251         72
  46.9437         63
  46.9623         67
  46.9809         85
  46.9994         75
  47.0180         50
  47.0366         58
  47.0552         81
  47.0737         59
  47.0923         56
  47.1109         75
  47.1295         74
  47.1480         69
  47.1666         63
  47.1852         84
  47.2038         70
  47.2223         63
  47.2409         46
  47.2595         60
  47.2781         68
  47.2966         62
  47.3152         56
  47.3338         57
  47.3524         68
  47.3709         75
  47.3895         81
  47.4081         61
  47.4267         62
  47.4452         53
  47.4638         55
  47.4824         54
  47.5010         78
  47.5195         57
  47.5381         60
  47.5567         57
  47.5753         64
  47.5939         66
  47.6124         65
  47.6310         59
  47.6496         64
  47.6682         54
  47.6867         66
  47.7053         48
  47.7239         64
  47.7425         72
  47.7610         62
  47.7796         62
  47.7982         47
  47.8168         63
  47.8353         61
  47.8539         69
  47.8725         64
  47.8911         67
  47.9096         59
  47.9282         61
  47.9468         72
  47.9654         55
  47.9839         75
  48.0025         61
  48.0211         74
  48.0397         68
  48.0582         78
  48.0768         60
  48.0954         59
  48.1140         49
  48.1325         56
  48.1511         60
  48.1697         64
  48.1883         71
  48.2068         67
  48.2254         55
  48.2440         72
  48.2626         82
  48.2811         68
  48.2997         63
  48.3183         70
  48.3369         58
  48.3555         63
  48.3740         61
  48.3926         56
  48.4112         66
  48.4298         63
  48.4483         58
  48.4669         61
  48.4855         55
  48.5041         72
  48.5226         62
  48.5412         60
  48.5598         55
  48.5784         68
  48.5969         55
  48.6155         59
  48.6341         62
  48.6527         67
  48.6712         80
  48.6898         60
  48.7084         64
  48.7270         60
  48.7455         64
  48.7641         64
  48.7827         72
  48.8013         64
  48.8198         80
  48.8384         63
  48.8570         76
  48.8756         62
  48.8941         69
  48.9127         89
  48.9313         92
  48.9499        115
  48.9684        125
  48.9870         92
  49.0056         80
  49.0242         71
  49.0427         68
  49.0613         96
  49.0799        105
  49.0985         71
  49.1171         92
  49.1356         81
  49.1542         79
  49.1728         73
  49.1914         70
  49.2099         72
  49.2285         73
  49.2471         63
  49.2657         60
  49.2842         64
  49.3028         53
  49.3214         66
  49.3400         66
  49.3585         64
  49.3771         83
  49.3957         62
  49.4143         60
  49.4328         69
  49.4514         56
  49.4700         50
  49.4886         52
  49.5071         69
  49.5257         66
  49.5443         72
  49.5629         63
  49.5814         59
  49.6000         72
  49.6186         58
  49.6372         53
  49.6557         50
  49.6743         57
  49.6929         62
  49.7115         64
  49.7300         70
  49.7486         54
  49.7672         52
  49.7858         73
  49.8043         69
  49.8229         54
  49.8415         66
  49.8601         56
  49.8786         58
  49.8972         56
  49.9158         68
  49.9344         76
  49.9530         68
  49.9715         71
  49.9901         58
  50.0087         52
  50.0273         63
  50.0458         53
  50.0644         62
  50.0830         64
  50.1016         75
  50.1201         73
  50.1387         63
  50.1573         71
  50.1759         63
  50.1944         64
  50.2130         72
  50.2316         58
  50.2502         60
  50.2687         65
  50.2873         67
  50.3059         67
  50.3245         66
  50.3430         69
  50.3616         68
  50.3802         55
  50.3988         70
  50.4173         76
  50.4359         44
  50.4545         69
  50.4731         63
  50.4916         55
  50.5102         63
  50.5288         73
  50.5474         60
  50.5659         52
  50.5845         59
  50.6031         50
  50.6217         59
  50.6402         70
  50.6588         47
  50.6774         54
  50.6960         68
  50.7146         63
  50.7331         57
  50.7517         68
  50.7703         53
  50.7889         55
  50.8074         43
  50.8260         67
  50.8446         67
  50.8632         60
  50.8817         57
  50.9003         61
  50.9189         54
  50.9375         54
  50.9560         65
  50.9746         51
  50.9932         64
  51.0118         65
  51.0303         69
  51.0489         56
  51.0675         64
  51.0861         58
  51.1046         57
  51.1232         51
  51.1418         56
  51.1604         66
  51.1789         57
  51.1975         57
  51.2161         59
  51.2347         58
  51.2532         66
  51.2718         52
  51.2904         59
  51.3090         53
  51.3275         60
  51.3461         81
  51.3647         63
  51.3833         65
  51.4018         74
  51.4204         88
  51.4390         53
  51.4576         56
  51.4762         60
  51.4947         72
  51.5133         60
  51.5319         57
  51.5505         55
  51.5690         54
  51.5876         77
  51.6062         65
  51.6248         59
  51.6433         63
  51.6619         59
  51.6805         59
  51.6991         37
  51.7176         63
  51.7362         55
  51.7548         44
  51.7734         51
  51.7919         66
  51.8105         75
  51.8291         77
  51.8477         69
  51.8662         59
  51.8848         78
  51.9034         62
  51.9220         66
  51.9405         61
  51.9591         70
  51.9777         66
  51.9963         58
  52.0148         59
  52.0334         63
  52.0520         55
  52.0706         69
  52.0891         72
  52.1077         62
  52.1263         61
  52.1449         63
  52.1634         68
  52.1820         47
  52.2006         47
  52.2192         56
  52.2378         72
  52.2563         48
  52.2749         65
  52.2935         51
  52.3121         50
  52.3306         55
  52.3492         46
  52.3678         54
  52.3864         59
  52.4049         54
  52.4235         56
  52.4421         57
  52.4607         47
  52.4792         52
  52.4978         69
  52.5164         62
  52.5350         65
  52.5535         53
  52.5721         56
  52.5907         47
  52.6093         60
  52.6278         59
  52.6464         60
  52.6650         63
  52.6836         60
  52.7021         64
  52.7207         66
  52.7393         59
  52.7579         59
  52.7764         46
  52.7950         66
  52.8136         65
  52.8322         50
  52.8507         56
  52.8693         44
  52.8879         70
  52.9065         52
  52.9250         61
  52.9436         60
  52.9622         69
  52.9808         69
  52.9994         59
  53.0179         50
  53.0365         62
  53.0551         71
  53.0737         71
  53.0922         61
  53.1108         61
  53.1294         70
  53.1480         62
  53.1665         62
  53.1851         61
  53.2037         72
  53.2223         46
  53.2408         61
  53.2594         62
  53.2780         54
  53.2966         65
  53.3151         58
  53.3337         48
  53.3523         57
  53.3709         53
  53.3894         55
  53.4080         65
  53.4266         57
  53.4452         62
  53.4637         72
  53.4823         43
  53.5009         50
  53.5195         59
  53.5380         55
  53.5566         68
  53.5752         62
  53.5938         64
  53.6123         64
  53.6309         71
  53.6495         62
  53.6681         69
  53.6866         70
  53.7052         67
  53.7238         66
  53.7424         59
  53.7610         45
  53.7795         45
  53.7981         41
  53.8167         71
  53.8353         50
  53.8538         66
  53.8724         51
  53.8910         72
  53.9096         52
  53.9281         69
  53.9467         71
  53.9653         65
  53.9839         84
  54.0024         72
  54.0210         63
  54.0396         55
  54.0582         77
  54.0767         60
  54.0953         66
  54.1139         62
  54.1325         77
  54.1510         64
  54.1696         63
  54.1882         59
  54.2068         68
  54.2253         60
  54.2439         68
  54.2625         57
  54.2811         47
  54.2996         51
  54.3182         56
  54.3368         71
  54.3554         48
  54.3739         58
  54.3925         58
  54.4111         62
  54.4297         64
  54.4482         65
  54.4668         62
  54.4854         57
  54.5040         60
  54.5225         55
  54.5411         51
  54.5597         60
  54.5783         60
  54.5969         57
  54.6154         44
  54.6340         57
  54.6526         53
  54.6712         51
  54.6897         56
  54.7083         62
  54.7269         55
  54.7455         39
  54.7640         61
  54.7826         52
  54.8012         50
  54.8198         48
  54.8383         60
  54.8569         78
  54.8755         52
  54.8941         54
  54.9126         59
  54.9312         70
  54.9498         49
  54.9684         57
  54.9869         56
  55.0055         59
  55.0241         69
  55.0427         49
  55.0612         48
  55.0798         58
  55.0984         70
  55.1170         61
  55.1355         58
  55.1541         61
  55.1727         62
  55.1913         60
  55.2098         53
  55.2284         68
  55.2470         61
  55.2656         67
  55.2841         61
  55.3027         67
  55.3213         62
  55.3399         46
  55.3585         62
  55.3770         61
  55.3956         48
  55.4142         50
  55.4328         64
  55.4513         66
  55.4699         56
  55.4885         62
  55.5071         51
  55.5256         48
  55.5442         58
  55.5628         62
  55.5814         46
  55.5999         49
  55.6185         58
  55.6371         56
  55.6557         39
  55.6742         42
  55.6928         60
  55.7114         48
  55.7300         58
  55.7485         55
  55.7671         60
  55.7857         62
  55.8043         66
  55.8228         57
  55.8414         64
  55.8600         56
  55.8786         47
  55.8971         71
  55.9157         55
  55.9343         65
  55.9529         58
  55.9714         54
  55.9900         51
  56.0086         58
  56.0272         66
  56.0457         64
  56.0643         70
  56.0829         54
  56.1015         74
  56.1201         64
  56.1386         66
  56.1572         56
  56.1758         75
  56.1944         64
  56.2129         62
  56.2315         63
  56.2501         67
  56.2687         66
  56.2872         82
  56.3058         68
  56.3244         74
  56.3430         52
  56.3615         69
  56.3801         71
  56.3987         82
  56.4173         42
  56.4358         63
  56.4544         56
  56.4730         60
  56.4916         63
  56.5101         45
  56.5287         53
  56.5473         53
  56.5659         70
  56.5844         63
  56.6030         58
  56.6216         59
  56.6402         58
  56.6587         55
  56.6773         66
  56.6959         56
  56.7145         42
  56.7330         64
  56.7516         68
  56.7702         60
  56.7888         55
  56.8073         67
  56.8259         49
  56.8445         75
  56.8631         53
  56.8817         59
  56.9002         62
  56.9188         49
  56.9374         55
  56.9560         48
  56.9745         61
  56.9931         44
  57.0117         58
  57.0303         53
  57.0488         41
  57.0674         56
  57.0860         56
  57.1046         62
  57.1231         44
  57.1417         63
  57.1603         54
  57.1789         53
  57.1974         56
  57.2160         46
  57.2346         57
  57.2532         57
  57.2717         55
  57.2903         67
  57.3089         63
  57.3275         55
  57.3460         56
  57.3646         61
  57.3832         59
  57.4018         61
  57.4203         50
  57.4389         53
  57.4575         56
  57.4761         55
  57.4946         63
  57.5132         51
  57.5318         46
  57.5504         52
  57.5689         56
  57.5875         58
  57.6061         56
  57.6247         57
  57.6433         66
  57.6618         64
  57.6804         60
  57.6990         58
  57.7176         66
  57.7361         60
  57.7547         67
  57.7733         59
  57.7919         41
  57.8104         62
  57.8290         70
  57.8476         61
  57.8662         56
  57.8847         55
  57.9033         60
  57.9219         56
  57.9405         57
  57.9590         57
  57.9776         58
  57.9962         52
  58.0148         56
  58.0333         63
  58.0519         59
  58.0705         70
  58.0891         58
  58.1076         35
  58.1262         57
  58.1448         61
  58.1634         57
  58.1819         54
  58.2005         55
  58.2191         61
  58.2377         50
  58.2562         56
  58.2748         55
  58.2934         57
  58.3120         65
  58.3305         63
  58.3491         49
  58.3677         47
  58.3863         79
  58.4049         39
  58.4234         60
  58.4420         54
  58.4606         44
  58.4792         61
  58.4977         60
  58.5163         55
  58.5349         63
  58.5535         55
  58.5720         53
  58.5906         53
  58.6092         62
  58.6278         50
  58.6463         55
  58.6649         56
  58.6835         56
  58.7021         61
  58.7206         62
  58.7392         58
  58.7578         46
  58.7764         46
  58.7949         42
  58.8135         51
  58.8321         62
  58.8507         49
  58.8692         53
  58.8878         65
  58.9064         43
  58.9250         58
  58.9435         50
  58.9621         63
  58.9807         68
  58.9993         63
  59.0178         53
  59.0364         61
  59.0550         50
  59.0736         49
  59.0921         49
  59.1107         43
  59.1293         65
  59.1479         52
  59.1664         61
  59.1850         53
  59.2036         49
  59.2222         56
  59.2408         45
  59.2593         67
  59.2779         60
  59.2965         51
  59.3151         37
  59.3336         63
  59.3522         72
  59.3708         48
  59.3894         58
  59.4079         63
  59.4265         62
  59.4451         57
  59.4637         43
  59.4822         54
  59.5008         60
  59.5194         49
  59.5380         65
  59.5565         48
  59.5751         49
  59.5937         48
  59.6123         54
  59.6308         51
  59.6494         54
  59.6680         58
  59.6866         40
  59.7051         53
  59.7237         55
  59.7423         65
  59.7609         50
  59.7794         46
  59.7980         60
  59.8166         58
  59.8352         53
  59.8537         55
  59.8723         53
  59.8909         57
  59.9095         50
  59.9280         51
  59.9466         64
  59.9652         56
  59.9838         60
  60.0024         59
