;,2THETA,
5.0000,103
5.0186,107
5.0372,76
5.0557,76
5.0743,105
5.0929,93
5.1115,107
5.1300,91
5.1486,94
5.1672,91
5.1858,79
5.2043,96
5.2229,101
5.2415,98
5.2601,94
5.2786,77
5.2972,82
5.3158,94
5.3344,98
5.3529,75
5.3715,83
5.3901,77
5.4087,98
5.4272,92
5.4458,103
5.4644,78
5.4830,87
5.5015,91
5.5201,81
5.5387,92
5.5573,80
5.5758,89
5.5944,94
5.6130,80
5.6316,67
5.6501,72
5.6687,88
5.6873,60
5.7059,82
5.7244,72
5.7430,92
5.7616,71
5.7802,81
5.7988,86
5.8173,88
5.8359,86
5.8545,80
5.8731,61
5.8916,82
5.9102,77
5.9288,65
5.9474,75
5.9659,70
5.9845,77
6.0031,84
6.0217,77
6.0402,64
6.0588,67
6.0774,66
6.0960,80
6.1145,76
6.1331,70
6.1517,66
6.1703,78
6.1888,72
6.2074,72
6.2260,78
6.2446,63
6.2631,55
6.2817,69
6.3003,68
6.3189,54
6.3374,70
6.3560,75
6.3746,78
6.3932,65
6.4117,67
6.4303,70
6.4489,60
6.4675,70
6.4860,67
6.5046,74
6.5232,73
6.5418,81
6.5604,62
6.5789,61
6.5975,60
6.6161,65
6.6347,83
6.6532,74
6.6718,49
6.6904,46
6.7090,60
6.7275,68
6.7461,74
6.7647,58
6.7833,49
6.8018,62
6.8204,47
6.8390,60
6.8576,58
6.8761,84
6.8947,62
6.9133,79
6.9319,63
6.9504,52
6.9690,63
6.9876,68
7.0062,60
7.0247,63
7.0433,67
7.0619,50
7.0805,71
7.0990,52
7.1176,48
7.1362,51
7.1548,50
7.1733,52
7.1919,54
7.2105,51
7.2291,70
7.2476,46
7.2662,53
7.2848,58
7.3034,57
7.3220,74
7.3405,61
7.3591,57
7.3777,67
7.3963,58
7.4148,59
7.4334,73
7.4520,53
7.4706,63
7.4891,64
7.5077,56
7.5263,63
7.5449,69
7.5634,55
7.5820,50
7.6006,68
7.6192,73
7.6377,56
7.6563,63
7.6749,76
7.6935,70
7.7120,86
7.7306,69
7.7492,76
7.7678,54
7.7863,75
7.8049,64
7.8235,71
7.8421,58
7.8606,64
7.8792,76
7.8978,66
7.9164,77
7.9349,65
7.9535,72
7.9721,75
7.9907,72
8.0092,74
8.0278,64
8.0464,77
8.0650,70
8.0835,81
8.1021,75
8.1207,76
8.1393,74
8.1579,69
8.1764,54
8.1950,57
8.2136,58
8.2322,63
8.2507,67
8.2693,66
8.2879,61
8.3065,62
8.3250,75
8.3436,69
8.3622,69
8.3808,81
8.3993,51
8.4179,69
8.4365,67
8.4551,73
8.4736,75
8.4922,69
8.5108,74
8.5294,73
8.5479,58
8.5665,81
8.5851,75
8.6037,77
8.6222,85
8.6408,76
8.6594,74
8.6780,60
8.6965,81
8.7151,73
8.7337,56
8.7523,79
8.7708,79
8.7894,80
8.8080,82
8.8266,87
8.8451,73
8.8637,91
8.8823,79
8.9009,61
8.9195,78
8.9380,72
8.9566,89
8.9752,97
8.9938,92
9.0123,87
9.0309,82
9.0495,83
9.0681,79
9.0866,107
9.1052,89
9.1238,94
9.1424,82
9.1609,79
9.1795,64
9.1981,72
9.2167,82
9.2352,80
9.2538,77
9.2724,71
9.2910,75
9.3095,78
9.3281,86
9.3467,94
9.3653,97
9.3838,72
9.4024,85
9.4210,86
9.4396,75
9.4581,78
9.4767,78
9.4953,70
9.5139,99
9.5324,86
9.5510,75
9.5696,76
9.5882,78
9.6067,83
9.6253,70
9.6439,72
9.6625,77
9.6811,85
9.6996,71
9.7182,72
9.7368,75
9.7554,69
9.7739,83
9.7925,77
9.8111,99
9.8297,98
9.8482,95
9.8668,74
9.8854,95
9.9040,83
9.9225,101
9.9411,79
9.9597,77
9.9783,93
9.9968,97
10.0154,62
10.0340,109
10.0526,105
10.0711,82
10.0897,93
10.1083,94
10.1269,95
10.1454,92
10.1640,84
10.1826,88
10.2012,105
10.2197,100
10.2383,83
10.2569,99
10.2755,96
10.2940,113
10.3126,95
10.3312,100
10.3498,71
10.3683,79
10.3869,84
10.4055,99
10.4241,81
10.4427,83
10.4612,99
10.4798,81
10.4984,88
10.5170,101
10.5355,92
10.5541,102
10.5727,89
10.5913,97
10.6098,102
10.6284,90
10.6470,79
10.6656,110
10.6841,93
10.7027,104
10.7213,92
10.7399,82
10.7584,96
10.7770,81
10.7956,90
10.8142,95
10.8327,87
10.8513,76
10.8699,83
10.8885,69
10.9070,100
10.9256,85
10.9442,93
10.9628,108
10.9813,90
10.9999,78
11.0185,80
11.0371,82
11.0556,62
11.0742,87
11.0928,93
11.1114,81
11.1299,88
11.1485,85
11.1671,79
11.1857,88
11.2043,101
11.2228,81
11.2414,96
11.2600,82
11.2786,87
11.2971,93
11.3157,95
11.3343,88
11.3529,99
11.3714,100
11.3900,87
11.4086,100
11.4272,76
11.4457,85
11.4643,95
11.4829,79
11.5015,89
11.5200,81
11.5386,98
11.5572,81
11.5758,94
11.5943,76
11.6129,87
11.6315,92
11.6501,91
11.6686,82
11.6872,98
11.7058,92
11.7244,60
11.7429,85
11.7615,83
11.7801,75
11.7987,85
11.8172,91
11.8358,82
11.8544,86
11.8730,88
11.8915,73
11.9101,81
11.9287,83
11.9473,71
11.9659,82
11.9844,83
12.0030,69
12.0216,84
12.0402,72
12.0587,96
12.0773,88
12.0959,107
12.1145,91
12.1330,78
12.1516,67
12.1702,99
12.1888,73
12.2073,82
12.2259,79
12.2445,87
12.2631,68
12.2816,77
12.3002,85
12.3188,58
12.3374,82
12.3559,69
12.3745,71
12.3931,77
12.4117,69
12.4302,91
12.4488,72
12.4674,84
12.4860,94
12.5045,63
12.5231,76
12.5417,82
12.5603,80
12.5788,96
12.5974,85
12.6160,71
12.6346,78
12.6531,75
12.6717,95
12.6903,73
12.7089,79
12.7274,87
12.7460,75
12.7646,97
12.7832,76
12.8018,68
12.8203,77
12.8389,79
12.8575,83
12.8761,94
12.8946,71
12.9132,76
12.9318,75
12.9504,75
12.9689,84
12.9875,73
13.0061,76
13.0247,60
13.0432,86
13.0618,70
13.0804,80
13.0990,71
13.1175,81
13.1361,82
13.1547,67
13.1733,86
13.1918,74
13.2104,73
13.2290,76
13.2476,68
13.2661,66
13.2847,79
13.3033,50
13.3219,60
13.3404,75
13.3590,67
13.3776,62
13.3962,90
13.4147,67
13.4333,80
13.4519,71
13.4705,58
13.4890,73
13.5076,64
13.5262,76
13.5448,75
13.5634,76
13.5819,66
13.6005,78
13.6191,71
13.6377,64
13.6562,68
13.6748,56
13.6934,65
13.7120,63
13.7305,88
13.7491,76
13.7677,66
13.7863,69
13.8048,75
13.8234,70
13.8420,63
13.8606,85
13.8791,68
13.8977,68
13.9163,66
13.9349,63
13.9534,70
13.9720,61
13.9906,72
14.0092,74
14.0277,56
14.0463,73
14.0649,67
14.0835,77
14.1020,69
14.1206,67
14.1392,58
14.1578,70
14.1763,80
14.1949,72
14.2135,54
14.2321,57
14.2506,65
14.2692,64
14.2878,52
14.3064,73
14.3250,59
14.3435,64
14.3621,61
14.3807,72
14.3993,67
14.4178,77
14.4364,69
14.4550,72
14.4736,82
14.4921,57
14.5107,77
14.5293,57
14.5479,53
14.5664,56
14.5850,67
14.6036,67
14.6222,57
14.6407,59
14.6593,61
14.6779,62
14.6965,65
14.7150,70
14.7336,57
14.7522,78
14.7708,61
14.7893,72
14.8079,67
14.8265,64
14.8451,47
14.8636,70
14.8822,49
14.9008,57
14.9194,64
14.9379,66
14.9565,51
14.9751,42
14.9937,66
15.0122,71
15.0308,52
15.0494,53
15.0680,56
15.0866,60
15.1051,60
15.1237,78
15.1423,62
15.1609,65
15.1794,58
15.1980,57
15.2166,61
15.2352,65
15.2537,51
15.2723,65
15.2909,66
15.3095,62
15.3280,70
15.3466,63
15.3652,67
15.3838,66
15.4023,58
15.4209,68
15.4395,57
15.4581,52
15.4766,51
15.4952,70
15.5138,69
15.5324,54
15.5509,66
15.5695,55
15.5881,68
15.6067,62
15.6252,59
15.6438,57
15.6624,69
15.6810,64
15.6995,65
15.7181,61
15.7367,75
15.7553,78
15.7738,54
15.7924,56
15.8110,66
15.8296,50
15.8482,50
15.8667,41
15.8853,48
15.9039,59
15.9225,57
15.9410,60
15.9596,49
15.9782,56
15.9968,60
16.0153,60
16.0339,61
16.0525,62
16.0711,56
16.0896,60
16.1082,70
16.1268,51
16.1454,67
16.1639,62
16.1825,53
16.2011,61
16.2197,59
16.2382,53
16.2568,65
16.2754,65
16.2940,41
16.3125,50
16.3311,76
16.3497,56
16.3683,69
16.3868,73
16.4054,64
16.4240,50
16.4426,67
16.4611,56
16.4797,64
16.4983,73
16.5169,57
16.5354,51
16.5540,63
16.5726,54
16.5912,60
16.6097,54
16.6283,69
16.6469,54
16.6655,54
16.6841,66
16.7026,64
16.7212,63
16.7398,56
16.7584,63
16.7769,63
16.7955,47
16.8141,50
16.8327,55
16.8512,60
16.8698,54
16.8884,48
16.9070,49
16.9255,44
16.9441,49
16.9627,65
16.9813,63
16.9998,62
17.0184,63
17.0370,53
17.0556,66
17.0741,60
17.0927,57
17.1113,86
17.1299,51
17.1484,49
17.1670,74
17.1856,61
17.2042,60
17.2227,58
17.2413,63
17.2599,53
17.2785,65
17.2970,48
17.3156,66
17.3342,42
17.3528,44
17.3713,55
17.3899,70
17.4085,50
17.4271,68
17.4457,54
17.4642,62
17.4828,55
17.5014,60
17.5200,52
17.5385,62
17.5571,71
17.5757,55
17.5943,50
17.6128,74
17.6314,53
17.6500,54
17.6686,46
17.6871,67
17.7057,63
17.7243,60
17.7429,72
17.7614,66
17.7800,60
17.7986,64
17.8172,40
17.8357,65
17.8543,49
17.8729,66
17.8915,64
17.9100,54
17.9286,68
17.9472,58
17.9658,45
17.9843,52
18.0029,37
18.0215,48
18.0401,58
18.0586,63
18.0772,62
18.0958,74
18.1144,67
18.1329,58
18.1515,67
18.1701,72
18.1887,58
18.2073,77
18.2258,64
18.2444,56
18.2630,61
18.2816,60
18.3001,74
18.3187,75
18.3373,61
18.3559,65
18.3744,57
18.3930,72
18.4116,53
18.4302,54
18.4487,48
18.4673,62
18.4859,71
18.5045,62
18.5230,62
18.5416,58
18.5602,64
18.5788,56
18.5973,62
18.6159,67
18.6345,54
18.6531,58
18.6716,69
18.6902,55
18.7088,65
18.7274,68
18.7459,63
18.7645,60
18.7831,73
18.8017,67
18.8202,70
18.8388,63
18.8574,68
18.8760,53
18.8945,61
18.9131,63
18.9317,66
18.9503,84
18.9689,62
18.9874,54
19.0060,75
19.0246,86
19.0432,59
19.0617,65
19.0803,70
19.0989,70
19.1175,60
19.1360,73
19.1546,63
19.1732,56
19.1918,54
19.2103,62
19.2289,58
19.2475,67
19.2661,64
19.2846,58
19.3032,60
19.3218,46
19.3404,52
19.3589,78
19.3775,64
19.3961,61
19.4147,59
19.4332,67
19.4518,59
19.4704,84
19.4890,53
19.5075,57
19.5261,77
19.5447,61
19.5633,71
19.5818,63
19.6004,56
19.6190,63
19.6376,62
19.6561,51
19.6747,71
19.6933,69
19.7119,77
19.7305,68
19.7490,56
19.7676,66
19.7862,56
19.8048,58
19.8233,67
19.8419,52
19.8605,65
19.8791,73
19.8976,63
19.9162,73
19.9348,73
19.9534,53
19.9719,59
19.9905,66
20.0091,54
20.0277,56
20.0462,57
20.0648,64
20.0834,75
20.1020,59
20.1205,72
20.1391,58
20.1577,56
20.1763,72
20.1948,74
20.2134,66
20.2320,70
20.2506,71
20.2691,68
20.2877,51
20.3063,53
20.3249,60
20.3434,60
20.3620,62
20.3806,67
20.3992,88
20.4177,72
20.4363,71
20.4549,65
20.4735,67
20.4921,67
20.5106,64
20.5292,78
20.5478,69
20.5664,66
20.5849,63
20.6035,70
20.6221,73
20.6407,68
20.6592,81
20.6778,55
20.6964,55
20.7150,61
20.7335,65
20.7521,71
20.7707,61
20.7893,52
20.8078,66
20.8264,62
20.8450,70
20.8636,65
20.8821,72
20.9007,64
20.9193,64
20.9379,84
20.9564,74
20.9750,77
20.9936,58
21.0122,70
21.0307,69
21.0493,67
21.0679,77
21.0865,74
21.1050,78
21.1236,63
21.1422,76
21.1608,89
21.1793,85
21.1979,89
21.2165,110
21.2351,116
21.2537,125
21.2722,105
21.2908,110
21.3094,132
21.3280,153
21.3465,173
21.3651,207
21.3837,152
21.4023,119
21.4208,120
21.4394,100
21.4580,75
21.4766,67
21.4951,86
21.5137,70
21.5323,70
21.5509,73
21.5694,61
21.5880,62
21.6066,66
21.6252,83
21.6437,62
21.6623,62
21.6809,66
21.6995,68
21.7180,66
21.7366,78
21.7552,72
21.7738,71
21.7923,71
21.8109,74
21.8295,67
21.8481,71
21.8666,73
21.8852,62
21.9038,82
21.9224,76
21.9409,76
21.9595,64
21.9781,68
21.9967,74
22.0152,71
22.0338,76
22.0524,80
22.0710,85
22.0896,75
22.1081,70
22.1267,84
22.1453,67
22.1639,74
22.1824,63
22.2010,74
22.2196,81
22.2382,53
22.2567,59
22.2753,77
22.2939,59
22.3125,73
22.3310,75
22.3496,70
22.3682,63
22.3868,74
22.4053,82
22.4239,70
22.4425,72
22.4611,67
22.4796,66
22.4982,64
22.5168,69
22.5354,60
22.5539,60
22.5725,82
22.5911,70
22.6097,58
22.6282,87
22.6468,61
22.6654,73
22.6840,78
22.7025,79
22.7211,66
22.7397,94
22.7583,49
22.7768,70
22.7954,73
22.8140,67
22.8326,72
22.8512,84
22.8697,85
22.8883,77
22.9069,74
22.9255,72
22.9440,92
22.9626,86
22.9812,76
22.9998,76
23.0183,79
23.0369,71
23.0555,83
23.0741,68
23.0926,71
23.1112,85
23.1298,60
23.1484,77
23.1669,79
23.1855,72
23.2041,66
23.2227,62
23.2412,72
23.2598,80
23.2784,64
23.2970,77
23.3155,90
23.3341,83
23.3527,74
23.3713,94
23.3898,69
23.4084,82
23.4270,65
23.4456,53
23.4641,92
23.4827,70
23.5013,61
23.5199,81
23.5384,60
23.5570,78
23.5756,64
23.5942,90
23.6128,71
23.6313,79
23.6499,71
23.6685,64
23.6871,75
23.7056,82
23.7242,69
23.7428,82
23.7614,83
23.7799,88
23.7985,70
23.8171,74
23.8357,64
23.8542,72
23.8728,78
23.8914,76
23.9100,57
23.9285,79
23.9471,76
23.9657,65
23.9843,75
24.0028,79
24.0214,63
24.0400,66
24.0586,86
24.0771,65
24.0957,93
24.1143,76
24.1329,102
24.1514,91
24.1700,86
24.1886,78
24.2072,77
24.2257,63
24.2443,67
24.2629,74
24.2815,80
24.3000,95
24.3186,66
24.3372,80
24.3558,69
24.3744,58
24.3929,82
24.4115,67
24.4301,70
24.4487,68
24.4672,72
24.4858,77
24.5044,83
24.5230,67
24.5415,64
24.5601,79
24.5787,73
24.5973,76
24.6158,69
24.6344,81
24.6530,79
24.6716,63
24.6901,80
24.7087,75
24.7273,79
24.7459,76
24.7644,75
24.7830,67
24.8016,53
24.8202,62
24.8387,78
24.8573,73
24.8759,85
24.8945,90
24.9130,81
24.9316,68
24.9502,58
24.9688,72
24.9873,84
25.0059,78
25.0245,63
25.0431,81
25.0616,69
25.0802,87
25.0988,77
25.1174,68
25.1360,91
25.1545,77
25.1731,71
25.1917,76
25.2103,59
25.2288,73
25.2474,67
25.2660,84
25.2846,66
25.3031,68
25.3217,80
25.3403,64
25.3589,85
25.3774,75
25.3960,65
25.4146,77
25.4332,81
25.4517,83
25.4703,75
25.4889,73
25.5075,86
25.5260,78
25.5446,65
25.5632,76
25.5818,82
25.6003,69
25.6189,67
25.6375,77
25.6561,70
25.6746,68
25.6932,59
25.7118,69
25.7304,88
25.7489,74
25.7675,79
25.7861,57
25.8047,75
25.8232,61
25.8418,72
25.8604,83
25.8790,78
25.8976,81
25.9161,72
25.9347,63
25.9533,68
25.9719,58
25.9904,69
26.0090,63
26.0276,69
26.0462,66
26.0647,50
26.0833,53
26.1019,70
26.1205,80
26.1390,77
26.1576,74
26.1762,63
26.1948,81
26.2133,82
26.2319,78
26.2505,70
26.2691,65
26.2876,56
26.3062,76
26.3248,78
26.3434,88
26.3619,65
26.3805,83
26.3991,65
26.4177,73
26.4362,60
26.4548,61
26.4734,63
26.4920,71
26.5105,70
26.5291,72
26.5477,81
26.5663,60
26.5848,76
26.6034,56
26.6220,63
26.6406,68
26.6591,64
26.6777,73
26.6963,68
26.7149,68
26.7335,77
26.7520,61
26.7706,81
26.7892,76
26.8078,65
26.8263,82
26.8449,68
26.8635,76
26.8821,71
26.9006,72
26.9192,82
26.9378,66
26.9564,66
26.9749,88
26.9935,90
27.0121,62
27.0307,77
27.0492,65
27.0678,72
27.0864,75
27.1050,69
27.1235,72
27.1421,74
27.1607,76
27.1793,85
27.1978,94
27.2164,109
27.2350,88
27.2536,86
27.2721,88
27.2907,82
27.3093,77
27.3279,63
27.3464,72
27.3650,58
27.3836,73
27.4022,68
27.4207,66
27.4393,83
27.4579,78
27.4765,56
27.4951,76
27.5136,64
27.5322,62
27.5508,68
27.5694,57
27.5879,59
27.6065,54
27.6251,70
27.6437,59
27.6622,80
27.6808,61
27.6994,79
27.7180,54
27.7365,67
27.7551,62
27.7737,67
27.7923,56
27.8108,75
27.8294,68
27.8480,58
27.8666,74
27.8851,66
27.9037,55
27.9223,55
27.9409,71
27.9594,71
27.9780,72
27.9966,65
28.0152,68
28.0337,65
28.0523,62
28.0709,58
28.0895,59
28.1080,74
28.1266,60
28.1452,71
28.1638,66
28.1823,67
28.2009,46
28.2195,61
28.2381,53
28.2567,59
28.2752,70
28.2938,57
28.3124,57
28.3310,83
28.3495,61
28.3681,59
28.3867,71
28.4053,63
28.4238,57
28.4424,69
28.4610,57
28.4796,59
28.4981,67
28.5167,62
28.5353,44
28.5539,61
28.5724,70
28.5910,57
28.6096,51
28.6282,64
28.6467,60
28.6653,51
28.6839,51
28.7025,57
28.7210,65
28.7396,78
28.7582,73
28.7768,69
28.7953,76
28.8139,66
28.8325,66
28.8511,53
28.8696,54
28.8882,65
28.9068,56
28.9254,65
28.9439,67
28.9625,73
28.9811,51
28.9997,45
29.0183,49
29.0368,57
29.0554,71
29.0740,64
29.0926,52
29.1111,58
29.1297,62
29.1483,57
29.1669,58
29.1854,56
29.2040,63
29.2226,56
29.2412,62
29.2597,43
29.2783,51
29.2969,52
29.3155,70
29.3340,64
29.3526,55
29.3712,61
29.3898,62
29.4083,63
29.4269,66
29.4455,57
29.4641,69
29.4826,55
29.5012,68
29.5198,64
29.5384,58
29.5569,65
29.5755,66
29.5941,69
29.6127,42
29.6312,58
29.6498,56
29.6684,65
29.6870,56
29.7055,68
29.7241,81
29.7427,65
29.7613,47
29.7799,63
29.7984,56
29.8170,61
29.8356,62
29.8542,53
29.8727,59
29.8913,64
29.9099,53
29.9285,60
29.9470,49
29.9656,61
29.9842,59
30.0028,69
30.0213,50
30.0399,47
30.0585,54
30.0771,65
30.0956,55
30.1142,49
30.1328,54
30.1514,45
30.1699,65
30.1885,67
30.2071,44
30.2257,51
30.2442,55
30.2628,64
30.2814,61
30.3000,53
30.3185,60
30.3371,71
30.3557,84
30.3743,118
30.3928,124
30.4114,88
30.4300,104
30.4486,88
30.4671,101
30.4857,88
30.5043,66
30.5229,71
30.5415,53
30.5600,64
30.5786,56
30.5972,70
30.6158,45
30.6343,52
30.6529,56
30.6715,60
30.6901,49
30.7086,66
30.7272,53
30.7458,54
30.7644,55
30.7829,57
30.8015,39
30.8201,52
30.8387,57
30.8572,56
30.8758,48
30.8944,52
30.9130,52
30.9315,56
30.9501,50
30.9687,51
30.9873,47
31.0058,34
31.0244,47
31.0430,57
31.0616,45
31.0801,54
31.0987,60
31.1173,53
31.1359,59
31.1544,57
31.1730,50
31.1916,58
31.2102,59
31.2287,61
31.2473,46
31.2659,47
31.2845,46
31.3030,50
31.3216,66
31.3402,45
31.3588,50
31.3774,55
31.3959,46
31.4145,48
31.4331,54
31.4517,55
31.4702,51
31.4888,52
31.5074,54
31.5260,46
31.5445,43
31.5631,43
31.5817,72
31.6003,44
31.6188,55
31.6374,48
31.6560,44
31.6746,46
31.6931,59
31.7117,41
31.7303,68
31.7489,47
31.7674,48
31.7860,49
31.8046,46
31.8232,53
31.8417,54
31.8603,39
31.8789,41
31.8975,52
31.9160,46
31.9346,67
31.9532,52
31.9718,50
31.9903,52
32.0089,44
32.0275,49
32.0461,54
32.0646,37
32.0832,56
32.1018,45
32.1204,54
32.1390,45
32.1575,55
32.1761,50
32.1947,43
32.2133,40
32.2318,61
32.2504,48
32.2690,49
32.2876,41
32.3061,51
32.3247,43
32.3433,43
32.3619,50
32.3804,56
32.3990,56
32.4176,52
32.4362,33
32.4547,59
32.4733,64
32.4919,51
32.5105,61
32.5290,50
32.5476,53
32.5662,52
32.5848,49
32.6033,43
32.6219,44
32.6405,49
32.6591,50
32.6776,52
32.6962,39
32.7148,45
32.7334,45
32.7519,33
32.7705,53
32.7891,51
32.8077,42
32.8262,49
32.8448,40
32.8634,48
32.8820,37
32.9006,56
32.9191,46
32.9377,57
32.9563,32
32.9749,53
32.9934,36
33.0120,54
33.0306,44
33.0492,47
33.0677,42
33.0863,49
33.1049,46
33.1235,44
33.1420,37
33.1606,43
33.1792,48
33.1978,42
33.2163,49
33.2349,49
33.2535,45
33.2721,49
33.2906,32
33.3092,37
33.3278,46
33.3464,39
33.3649,45
33.3835,46
33.4021,48
33.4207,47
33.4392,40
33.4578,43
33.4764,38
33.4950,41
33.5135,47
33.5321,33
33.5507,43
33.5693,42
33.5878,41
33.6064,37
33.6250,35
33.6436,36
33.6622,57
33.6807,45
33.6993,38
33.7179,30
33.7365,51
33.7550,55
33.7736,47
33.7922,50
33.8108,32
33.8293,47
33.8479,32
33.8665,44
33.8851,44
33.9036,35
33.9222,42
33.9408,45
33.9594,38
33.9779,49
33.9965,40
34.0151,47
34.0337,57
34.0522,48
34.0708,42
34.0894,55
34.1080,38
34.1265,38
34.1451,48
34.1637,37
34.1823,45
34.2008,35
34.2194,51
34.2380,52
34.2566,44
34.2751,45
34.2937,30
34.3123,33
34.3309,38
34.3494,32
34.3680,55
34.3866,51
34.4052,33
34.4238,45
34.4423,54
34.4609,52
34.4795,50
34.4981,44
34.5166,54
34.5352,43
34.5538,41
34.5724,47
34.5909,36
34.6095,43
34.6281,51
34.6467,56
34.6652,48
34.6838,35
34.7024,57
34.7210,52
34.7395,59
34.7581,51
34.7767,49
34.7953,56
34.8138,52
34.8324,54
34.8510,46
34.8696,47
34.8881,47
34.9067,46
34.9253,36
34.9439,32
34.9624,28
34.9810,41
34.9996,33
35.0182,44
35.0367,38
35.0553,35
35.0739,31
35.0925,41
35.1110,48
35.1296,32
35.1482,40
35.1668,40
35.1854,34
35.2039,29
35.2225,41
35.2411,45
35.2597,36
35.2782,46
35.2968,39
35.3154,49
35.3340,34
35.3525,35
35.3711,36
35.3897,39
35.4083,38
35.4268,44
35.4454,37
35.4640,35
35.4826,36
35.5011,40
35.5197,36
35.5383,35
35.5569,27
35.5754,28
35.5940,34
35.6126,30
35.6312,26
35.6497,54
35.6683,45
35.6869,36
35.7055,38
35.7240,30
35.7426,39
35.7612,35
35.7798,38
35.7983,25
35.8169,33
35.8355,37
35.8541,36
35.8726,34
35.8912,31
35.9098,40
35.9284,27
35.9469,40
35.9655,34
35.9841,44
36.0027,28
36.0213,31
36.0398,34
36.0584,31
36.0770,25
36.0956,36
36.1141,37
36.1327,40
36.1513,31
36.1699,37
36.1884,39
36.2070,34
36.2256,28
36.2442,44
36.2627,42
36.2813,30
36.2999,26
36.3185,47
36.3370,41
36.3556,27
36.3742,33
36.3928,40
36.4113,35
36.4299,26
36.4485,36
36.4671,24
36.4856,25
36.5042,19
36.5228,31
36.5414,30
36.5599,36
36.5785,38
36.5971,35
36.6157,37
36.6342,33
36.6528,29
36.6714,37
36.6900,25
36.7085,31
36.7271,37
36.7457,27
36.7643,35
36.7829,20
36.8014,38
36.8200,20
36.8386,38
36.8572,38
36.8757,30
36.8943,32
36.9129,38
36.9315,32
36.9500,31
36.9686,35
36.9872,30
37.0058,31
37.0243,37
37.0429,38
37.0615,34
37.0801,25
37.0986,34
37.1172,34
37.1358,33
37.1544,29
37.1729,34
37.1915,47
37.2101,30
37.2287,32
37.2472,37
37.2658,25
37.2844,33
37.3030,33
37.3215,42
37.3401,41
37.3587,42
37.3773,36
37.3958,35
37.4144,42
37.4330,44
37.4516,71
37.4701,45
37.4887,48
37.5073,36
37.5259,41
37.5445,45
37.5630,39
37.5816,50
37.6002,32
37.6188,36
37.6373,47
37.6559,33
37.6745,26
37.6931,39
37.7116,47
37.7302,38
37.7488,44
37.7674,37
37.7859,32
37.8045,28
37.8231,26
37.8417,33
37.8602,28
37.8788,31
37.8974,37
37.9160,40
37.9345,42
37.9531,25
37.9717,22
37.9903,25
38.0088,33
38.0274,30
38.0460,32
38.0646,32
38.0831,27
38.1017,25
38.1203,26
38.1389,15
38.1574,25
38.1760,29
38.1946,38
38.2132,33
38.2317,34
38.2503,33
38.2689,31
38.2875,33
38.3061,33
38.3246,23
38.3432,33
38.3618,23
38.3804,26
38.3989,35
38.4175,30
38.4361,28
38.4547,30
38.4732,29
38.4918,40
38.5104,26
38.5290,38
38.5475,34
38.5661,30
38.5847,26
38.6033,34
38.6218,31
38.6404,29
38.6590,37
38.6776,30
38.6961,31
38.7147,31
38.7333,31
38.7519,30
38.7704,29
38.7890,38
38.8076,26
38.8262,38
38.8447,41
38.8633,33
38.8819,38
38.9005,38
38.9190,38
38.9376,35
38.9562,22
38.9748,28
38.9933,29
39.0119,31
39.0305,21
39.0491,30
39.0677,25
39.0862,37
39.1048,35
39.1234,30
39.1420,29
39.1605,28
39.1791,27
39.1977,39
39.2163,21
39.2348,22
39.2534,29
39.2720,34
39.2906,36
39.3091,34
39.3277,35
39.3463,29
39.3649,33
39.3834,44
39.4020,23
39.4206,27
39.4392,31
39.4577,34
39.4763,43
39.4949,38
39.5135,19
39.5320,16
39.5506,26
39.5692,32
39.5878,28
39.6063,28
39.6249,35
39.6435,29
39.6621,21
39.6806,30
39.6992,32
39.7178,33
39.7364,23
39.7549,36
39.7735,22
39.7921,28
39.8107,37
39.8293,29
39.8478,35
39.8664,17
39.8850,25
39.9036,26
39.9221,36
39.9407,33
39.9593,28
39.9779,21
39.9964,24
40.0150,33
40.0336,30
40.0522,27
40.0707,35
40.0893,26
40.1079,22
40.1265,37
40.1450,33
40.1636,41
40.1822,35
40.2008,27
40.2193,38
40.2379,31
40.2565,24
40.2751,25
40.2936,28
40.3122,25
40.3308,34
40.3494,31
40.3679,30
40.3865,37
40.4051,23
40.4237,22
40.4422,25
40.4608,35
40.4794,23
40.4980,27
40.5165,20
40.5351,22
40.5537,29
40.5723,22
40.5908,28
40.6094,29
40.6280,24
40.6466,32
40.6652,33
40.6837,40
40.7023,27
40.7209,22
40.7395,34
40.7580,32
40.7766,24
40.7952,19
40.8138,32
40.8323,33
40.8509,36
40.8695,29
40.8881,29
40.9066,26
40.9252,27
40.9438,35
40.9624,24
40.9809,27
40.9995,27
41.0181,33
41.0367,23
41.0552,28
41.0738,25
41.0924,30
41.1110,33
41.1295,21
41.1481,42
41.1667,33
41.1853,18
41.2038,31
41.2224,21
41.2410,32
41.2596,30
41.2781,36
41.2967,22
41.3153,26
41.3339,26
41.3524,28
41.3710,29
41.3896,19
41.4082,24
41.4268,29
41.4453,26
41.4639,23
41.4825,30
41.5011,25
41.5196,32
41.5382,26
41.5568,28
41.5754,28
41.5939,32
41.6125,32
41.6311,24
41.6497,18
41.6682,25
41.6868,29
41.7054,25
41.7240,27
41.7425,26
41.7611,37
41.7797,26
41.7983,26
41.8168,23
41.8354,28
41.8540,24
41.8726,28
41.8911,30
41.9097,35
41.9283,27
41.9469,40
41.9654,36
41.9840,28
42.0026,18
42.0212,20
42.0397,21
42.0583,34
42.0769,26
42.0955,25
42.1140,29
42.1326,34
42.1512,29
42.1698,26
42.1884,29
42.2069,25
42.2255,31
42.2441,23
42.2627,33
42.2812,26
42.2998,29
42.3184,29
42.3370,25
42.3555,26
42.3741,29
42.3927,29
42.4113,26
42.4298,25
42.4484,23
42.4670,29
42.4856,25
42.5041,32
42.5227,34
42.5413,32
42.5599,29
42.5784,15
42.5970,20
42.6156,36
42.6342,17
42.6527,17
42.6713,32
42.6899,28
42.7085,29
42.7270,24
42.7456,31
42.7642,24
42.7828,24
42.8013,33
42.8199,26
42.8385,36
42.8571,35
42.8756,30
42.8942,27
42.9128,33
42.9314,28
42.9500,23
42.9685,27
42.9871,28
43.0057,35
43.0243,32
43.0428,24
43.0614,27
43.0800,28
43.0986,26
43.1171,34
43.1357,24
43.1543,36
43.1729,29
43.1914,40
43.2100,23
43.2286,30
43.2472,37
43.2657,32
43.2843,29
43.3029,22
43.3215,41
43.3400,28
43.3586,27
43.3772,23
43.3958,26
43.4143,33
43.4329,24
43.4515,33
43.4701,32
43.4886,45
43.5072,56
43.5258,39
43.5444,33
43.5629,35
43.5815,32
43.6001,44
43.6187,38
43.6372,41
43.6558,32
43.6744,27
43.6930,34
43.7116,29
43.7301,22
43.7487,32
43.7673,32
43.7859,20
43.8044,22
43.8230,28
43.8416,26
43.8602,32
43.8787,29
43.8973,27
43.9159,36
43.9345,30
43.9530,29
43.9716,25
43.9902,25
44.0088,17
44.0273,25
44.0459,23
44.0645,28
44.0831,26
44.1016,25
44.1202,30
44.1388,31
44.1574,24
44.1759,23
44.1945,28
44.2131,24
44.2317,28
44.2502,21
44.2688,29
44.2874,33
44.3060,19
44.3245,29
44.3431,28
44.3617,27
44.3803,21
44.3988,23
44.4174,22
44.4360,32
44.4546,43
44.4732,14
44.4917,20
44.5103,26
44.5289,29
44.5475,26
44.5660,27
44.5846,24
44.6032,24
44.6218,22
44.6403,25
44.6589,27
44.6775,31
44.6961,30
44.7146,23
44.7332,29
44.7518,27
44.7704,27
44.7889,21
44.8075,42
44.8261,28
44.8447,38
44.8632,27
44.8818,24
44.9004,25
44.9190,23
44.9375,26
44.9561,35
44.9747,20
44.9933,28
45.0118,22
45.0304,20
45.0490,11
45.0676,36
45.0861,37
45.1047,32
45.1233,21
45.1419,34
45.1604,19
45.1790,24
45.1976,27
45.2162,23
45.2347,26
45.2533,23
45.2719,19
45.2905,25
45.3091,27
45.3276,23
45.3462,35
45.3648,26
45.3834,26
45.4019,23
45.4205,24
45.4391,22
45.4577,27
45.4762,26
45.4948,21
45.5134,21
45.5320,19
45.5505,27
45.5691,26
45.5877,27
45.6063,34
45.6248,30
45.6434,13
45.6620,22
45.6806,25
45.6991,22
45.7177,27
45.7363,25
45.7549,25
45.7734,25
45.7920,28
45.8106,26
45.8292,27
45.8477,32
45.8663,31
45.8849,17
45.9035,25
45.9220,16
45.9406,27
45.9592,29
45.9778,27
45.9963,20
46.0149,29
46.0335,19
46.0521,21
46.0707,23
46.0892,12
46.1078,19
46.1264,20
46.1450,27
46.1635,24
46.1821,30
46.2007,23
46.2193,33
46.2378,28
46.2564,29
46.2750,31
46.2936,23
46.3121,33
46.3307,29
46.3493,27
46.3679,18
46.3864,22
46.4050,23
46.4236,23
46.4422,39
46.4607,24
46.4793,29
46.4979,26
46.5165,20
46.5350,16
46.5536,27
46.5722,19
46.5908,25
46.6093,22
46.6279,22
46.6465,21
46.6651,12
46.6836,18
46.7022,33
46.7208,25
46.7394,21
46.7579,26
46.7765,28
46.7951,23
46.8137,25
46.8323,25
46.8508,23
46.8694,30
46.8880,23
46.9066,15
46.9251,24
46.9437,20
46.9623,16
46.9809,23
46.9994,27
47.0180,37
47.0366,30
47.0552,23
47.0737,31
47.0923,26
47.1109,24
47.1295,29
47.1480,34
47.1666,19
47.1852,24
47.2038,24
47.2223,21
47.2409,24
47.2595,28
47.2781,29
47.2966,22
47.3152,22
47.3338,24
47.3524,18
47.3709,26
47.3895,26
47.4081,26
47.4267,29
47.4452,33
47.4638,34
47.4824,27
47.5010,29
47.5195,26
47.5381,25
47.5567,23
47.5753,14
47.5939,23
47.6124,21
47.6310,20
47.6496,24
47.6682,23
47.6867,20
47.7053,25
47.7239,25
47.7425,25
47.7610,27
47.7796,31
47.7982,29
47.8168,17
47.8353,22
47.8539,25
47.8725,24
47.8911,22
47.9096,21
47.9282,34
47.9468,27
47.9654,26
47.9839,26
48.0025,24
48.0211,22
48.0397,26
48.0582,27
48.0768,25
48.0954,22
48.1140,19
48.1325,23
48.1511,18
48.1697,22
48.1883,25
48.2068,11
48.2254,29
48.2440,30
48.2626,28
48.2811,27
48.2997,13
48.3183,20
48.3369,24
48.3555,31
48.3740,23
48.3926,22
48.4112,30
48.4298,25
48.4483,28
48.4669,27
48.4855,30
48.5041,29
48.5226,23
48.5412,29
48.5598,21
48.5784,25
48.5969,23
48.6155,23
48.6341,22
48.6527,23
48.6712,26
48.6898,17
48.7084,26
48.7270,23
48.7455,26
48.7641,27
48.7827,25
48.8013,28
48.8198,31
48.8384,27
48.8570,34
48.8756,33
48.8941,33
48.9127,37
48.9313,31
48.9499,41
48.9684,53
48.9870,32
49.0056,25
49.0242,28
49.0427,30
49.0613,27
49.0799,31
49.0985,42
49.1171,29
49.1356,25
49.1542,21
49.1728,22
49.1914,20
49.2099,22
49.2285,28
49.2471,21
49.2657,25
49.2842,17
49.3028,30
49.3214,23
49.3400,21
49.3585,22
49.3771,19
49.3957,28
49.4143,27
49.4328,19
49.4514,22
49.4700,24
49.4886,20
49.5071,28
49.5257,24
49.5443,35
49.5629,30
49.5814,26
49.6000,24
49.6186,26
49.6372,27
49.6557,19
49.6743,26
49.6929,14
49.7115,28
49.7300,20
49.7486,38
49.7672,21
49.7858,25
49.8043,17
49.8229,22
49.8415,22
49.8601,29
49.8786,31
49.8972,25
49.9158,31
49.9344,24
49.9530,25
49.9715,22
49.9901,18
50.0087,18
50.0273,14
50.0458,36
50.0644,20
50.0830,16
50.1016,20
50.1201,20
50.1387,27
50.1573,22
50.1759,17
50.1944,25
50.2130,22
50.2316,20
50.2502,25
50.2687,32
50.2873,21
50.3059,25
50.3245,19
50.3430,23
50.3616,24
50.3802,15
50.3988,25
50.4173,22
50.4359,32
50.4545,31
50.4731,25
50.4916,17
50.5102,18
50.5288,23
50.5474,24
50.5659,23
50.5845,24
50.6031,15
50.6217,20
50.6402,19
50.6588,16
50.6774,25
50.6960,18
50.7146,24
50.7331,20
50.7517,27
50.7703,24
50.7889,21
50.8074,29
50.8260,16
50.8446,18
50.8632,20
50.8817,27
50.9003,22
50.9189,23
50.9375,16
50.9560,26
50.9746,29
50.9932,24
51.0118,27
51.0303,15
51.0489,23
51.0675,21
51.0861,30
51.1046,22
51.1232,16
51.1418,19
51.1604,29
51.1789,26
51.1975,21
51.2161,21
51.2347,23
51.2532,29
51.2718,24
51.2904,35
51.3090,27
51.3275,23
51.3461,27
51.3647,27
51.3833,23
51.4018,21
51.4204,22
51.4390,32
51.4576,27
51.4762,17
51.4947,14
51.5133,30
51.5319,37
51.5505,17
51.5690,35
51.5876,21
51.6062,22
51.6248,23
51.6433,21
51.6619,22
51.6805,24
51.6991,27
51.7176,19
51.7362,21
51.7548,27
51.7734,25
51.7919,19
51.8105,25
51.8291,23
51.8477,31
51.8662,12
51.8848,19
51.9034,22
51.9220,14
51.9405,24
51.9591,21
51.9777,24
51.9963,27
52.0148,19
52.0334,28
52.0520,20
52.0706,24
52.0891,24
52.1077,26
52.1263,17
52.1449,26
52.1634,15
52.1820,24
52.2006,29
52.2192,25
52.2378,20
52.2563,27
52.2749,19
52.2935,24
52.3121,22
52.3306,16
52.3492,13
52.3678,28
52.3864,21
52.4049,33
52.4235,20
52.4421,21
52.4607,20
52.4792,23
52.4978,21
52.5164,23
52.5350,22
52.5535,29
52.5721,23
52.5907,19
52.6093,23
52.6278,20
52.6464,24
52.6650,18
52.6836,21
52.7021,22
52.7207,19
52.7393,29
52.7579,22
52.7764,14
52.7950,13
52.8136,29
52.8322,23
52.8507,27
52.8693,19
52.8879,11
52.9065,22
52.9250,15
52.9436,24
52.9622,21
52.9808,21
52.9994,22
53.0179,20
53.0365,34
53.0551,27
53.0737,13
53.0922,27
53.1108,24
53.1294,20
53.1480,28
53.1665,16
53.1851,26
53.2037,21
53.2223,22
53.2408,18
53.2594,17
53.2780,14
53.2966,23
53.3151,24
53.3337,20
53.3523,33
53.3709,28
53.3894,26
53.4080,11
53.4266,18
53.4452,22
53.4637,25
53.4823,23
53.5009,27
53.5195,23
53.5380,25
53.5566,18
53.5752,18
53.5938,23
53.6123,28
53.6309,25
53.6495,21
53.6681,17
53.6866,27
53.7052,19
53.7238,28
53.7424,22
53.7610,26
53.7795,20
53.7981,29
53.8167,24
53.8353,21
53.8538,19
53.8724,26
53.8910,24
53.9096,25
53.9281,20
53.9467,27
53.9653,24
53.9839,30
54.0024,28
54.0210,34
54.0396,20
54.0582,22
54.0767,22
54.0953,30
54.1139,29
54.1325,14
54.1510,30
54.1696,26
54.1882,20
54.2068,28
54.2253,17
54.2439,20
54.2625,28
54.2811,16
54.2996,28
54.3182,14
54.3368,23
54.3554,21
54.3739,24
54.3925,24
54.4111,25
54.4297,22
54.4482,22
54.4668,22
54.4854,14
54.5040,20
54.5225,18
54.5411,16
54.5597,18
54.5783,29
54.5969,16
54.6154,19
54.6340,24
54.6526,27
54.6712,13
54.6897,18
54.7083,25
54.7269,19
54.7455,28
54.7640,21
54.7826,17
54.8012,21
54.8198,24
54.8383,28
54.8569,20
54.8755,17
54.8941,13
54.9126,22
54.9312,16
54.9498,21
54.9684,19
54.9869,21
55.0055,24
55.0241,16
55.0427,30
55.0612,18
55.0798,22
55.0984,25
55.1170,16
55.1355,21
55.1541,18
55.1727,14
55.1913,17
55.2098,24
55.2284,18
55.2470,26
55.2656,19
55.2841,25
55.3027,15
55.3213,19
55.3399,20
55.3585,26
55.3770,10
55.3956,14
55.4142,22
55.4328,18
55.4513,20
55.4699,21
55.4885,15
55.5071,32
55.5256,23
55.5442,18
55.5628,17
55.5814,22
55.5999,16
55.6185,18
55.6371,22
55.6557,24
55.6742,19
55.6928,20
55.7114,22
55.7300,31
55.7485,23
55.7671,17
55.7857,24
55.8043,23
55.8228,19
55.8414,27
55.8600,25
55.8786,20
55.8971,28
55.9157,9
55.9343,20
55.9529,17
55.9714,19
55.9900,19
56.0086,19
56.0272,28
56.0457,18
56.0643,24
56.0829,23
56.1015,19
56.1201,24
56.1386,20
56.1572,24
56.1758,26
56.1944,18
56.2129,24
56.2315,22
56.2501,19
56.2687,24
56.2872,32
56.3058,24
56.3244,25
56.3430,20
56.3615,23
56.3801,22
56.3987,21
56.4173,28
56.4358,24
56.4544,25
56.4730,14
56.4916,21
56.5101,23
56.5287,23
56.5473,19
56.5659,25
56.5844,28
56.6030,23
56.6216,15
56.6402,25
56.6587,19
56.6773,19
56.6959,23
56.7145,17
56.7330,27
56.7516,16
56.7702,19
56.7888,24
56.8073,19
56.8259,26
56.8445,20
56.8631,18
56.8817,19
56.9002,26
56.9188,23
56.9374,20
56.9560,20
56.9745,22
56.9931,17
57.0117,13
57.0303,34
57.0488,22
57.0674,15
57.0860,24
57.1046,31
57.1231,20
57.1417,12
57.1603,20
57.1789,21
57.1974,22
57.2160,21
57.2346,28
57.2532,20
57.2717,16
57.2903,18
57.3089,23
57.3275,18
57.3460,20
57.3646,21
57.3832,21
57.4018,19
57.4203,19
57.4389,10
57.4575,18
57.4761,25
57.4946,28
57.5132,16
57.5318,17
57.5504,18
57.5689,20
57.5875,15
57.6061,14
57.6247,24
57.6433,24
57.6618,21
57.6804,31
57.6990,18
57.7176,20
57.7361,17
57.7547,28
57.7733,22
57.7919,26
57.8104,27
57.8290,12
57.8476,20
57.8662,24
57.8847,22
57.9033,26
57.9219,19
57.9405,20
57.9590,18
57.9776,26
57.9962,18
58.0148,21
58.0333,16
58.0519,17
58.0705,17
58.0891,27
58.1076,19
58.1262,26
58.1448,18
58.1634,16
58.1819,16
58.2005,21
58.2191,20
58.2377,6
58.2562,14
58.2748,21
58.2934,12
58.3120,25
58.3305,27
58.3491,19
58.3677,18
58.3863,24
58.4049,14
58.4234,18
58.4420,17
58.4606,24
58.4792,22
58.4977,19
58.5163,25
58.5349,12
58.5535,11
58.5720,17
58.5906,21
58.6092,17
58.6278,23
58.6463,20
58.6649,21
58.6835,10
58.7021,24
58.7206,20
58.7392,15
58.7578,23
58.7764,18
58.7949,19
58.8135,22
58.8321,19
58.8507,24
58.8692,24
58.8878,22
58.9064,21
58.9250,24
58.9435,23
58.9621,14
58.9807,17
58.9993,26
59.0178,19
59.0364,17
59.0550,15
59.0736,24
59.0921,12
59.1107,18
59.1293,20
59.1479,18
59.1664,18
59.1850,20
59.2036,17
59.2222,21
59.2408,16
59.2593,18
59.2779,15
59.2965,18
59.3151,14
59.3336,13
59.3522,15
59.3708,22
59.3894,16
59.4079,15
59.4265,19
59.4451,16
59.4637,25
59.4822,26
59.5008,20
59.5194,18
59.5380,27
59.5565,16
59.5751,22
59.5937,21
59.6123,21
59.6308,17
59.6494,21
59.6680,7
59.6866,17
59.7051,18
59.7237,22
59.7423,24
59.7609,26
59.7794,18
59.7980,15
59.8166,12
59.8352,7
59.8537,16
59.8723,21
59.8909,30
59.9095,26
59.9280,16
59.9466,14
59.9652,19
59.9838,24
60.0024,21
