;,2THETA,
5.0000,119
5.0186,84
5.0372,91
5.0557,109
5.0743,99
5.0929,98
5.1115,77
5.1300,84
5.1486,87
5.1672,105
5.1858,105
5.2043,98
5.2229,90
5.2415,90
5.2601,83
5.2786,91
5.2972,96
5.3158,77
5.3344,91
5.3529,93
5.3715,79
5.3901,100
5.4087,90
5.4272,93
5.4458,89
5.4644,82
5.4830,76
5.5015,83
5.5201,89
5.5387,72
5.5573,71
5.5758,87
5.5944,87
5.6130,79
5.6316,71
5.6501,82
5.6687,86
5.6873,72
5.7059,70
5.7244,76
5.7430,80
5.7616,91
5.7802,81
5.7988,93
5.8173,65
5.8359,81
5.8545,84
5.8731,86
5.8916,72
5.9102,79
5.9288,74
5.9474,73
5.9659,72
5.9845,70
6.0031,63
6.0217,76
6.0402,75
6.0588,76
6.0774,61
6.0960,80
6.1145,63
6.1331,63
6.1517,72
6.1703,65
6.1888,72
6.2074,71
6.2260,88
6.2446,65
6.2631,72
6.2817,72
6.3003,60
6.3189,60
6.3374,74
6.3560,72
6.3746,56
6.3932,55
6.4117,58
6.4303,61
6.4489,54
6.4675,65
6.4860,59
6.5046,48
6.5232,76
6.5418,59
6.5604,76
6.5789,59
6.5975,51
6.6161,62
6.6347,77
6.6532,68
6.6718,58
6.6904,60
6.7090,72
6.7275,57
6.7461,51
6.7647,68
6.7833,56
6.8018,68
6.8204,52
6.8390,49
6.8576,62
6.8761,65
6.8947,60
6.9133,56
6.9319,57
6.9504,66
6.9690,57
6.9876,56
7.0062,65
7.0247,53
7.0433,63
7.0619,62
7.0805,69
7.0990,58
7.1176,76
7.1362,56
7.1548,63
7.1733,67
7.1919,53
7.2105,66
7.2291,49
7.2476,63
7.2662,61
7.2848,54
7.3034,50
7.3220,52
7.3405,69
7.3591,63
7.3777,64
7.3963,39
7.4148,48
7.4334,53
7.4520,64
7.4706,52
7.4891,66
7.5077,49
7.5263,68
7.5449,48
7.5634,58
7.5820,67
7.6006,62
7.6192,45
7.6377,55
7.6563,56
7.6749,60
7.6935,63
7.7120,63
7.7306,48
7.7492,77
7.7678,51
7.7863,66
7.8049,80
7.8235,80
7.8421,78
7.8606,74
7.8792,53
7.8978,67
7.9164,72
7.9349,70
7.9535,59
7.9721,71
7.9907,64
8.0092,48
8.0278,52
8.0464,69
8.0650,60
8.0835,79
8.1021,69
8.1207,69
8.1393,58
8.1579,74
8.1764,73
8.1950,72
8.2136,46
8.2322,80
8.2507,71
8.2693,59
8.2879,69
8.3065,76
8.3250,85
8.3436,77
8.3622,67
8.3808,79
8.3993,68
8.4179,76
8.4365,81
8.4551,74
8.4736,74
8.4922,66
8.5108,75
8.5294,69
8.5479,75
8.5665,70
8.5851,82
8.6037,66
8.6222,75
8.6408,75
8.6594,84
8.6780,75
8.6965,72
8.7151,71
8.7337,73
8.7523,65
8.7708,73
8.7894,54
8.8080,71
8.8266,76
8.8451,88
8.8637,73
8.8823,82
8.9009,63
8.9195,61
8.9380,78
8.9566,64
8.9752,88
8.9938,85
9.0123,91
9.0309,61
9.0495,65
9.0681,80
9.0866,72
9.1052,76
9.1238,78
9.1424,56
9.1609,84
9.1795,86
9.1981,75
9.2167,74
9.2352,85
9.2538,72
9.2724,84
9.2910,87
9.3095,77
9.3281,89
9.3467,67
9.3653,78
9.3838,86
9.4024,76
9.4210,83
9.4396,83
9.4581,83
9.4767,76
9.4953,72
9.5139,80
9.5324,84
9.5510,75
9.5696,75
9.5882,86
9.6067,77
9.6253,78
9.6439,70
9.6625,98
9.6811,102
9.6996,82
9.7182,71
9.7368,90
9.7554,91
9.7739,63
9.7925,80
9.8111,96
9.8297,82
9.8482,76
9.8668,103
9.8854,71
9.9040,93
9.9225,90
9.9411,100
9.9597,74
9.9783,80
9.9968,92
10.0154,91
10.0340,95
10.0526,89
10.0711,84
10.0897,66
10.1083,88
10.1269,77
10.1454,77
10.1640,81
10.1826,100
10.2012,96
10.2197,97
10.2383,96
10.2569,77
10.2755,91
10.2940,89
10.3126,86
10.3312,86
10.3498,66
10.3683,101
10.3869,99
10.4055,85
10.4241,87
10.4427,72
10.4612,85
10.4798,96
10.4984,81
10.5170,103
10.5355,90
10.5541,93
10.5727,96
10.5913,94
10.6098,91
10.6284,97
10.6470,84
10.6656,93
10.6841,89
10.7027,76
10.7213,82
10.7399,85
10.7584,80
10.7770,86
10.7956,86
10.8142,84
10.8327,101
10.8513,97
10.8699,95
10.8885,102
10.9070,92
10.9256,89
10.9442,87
10.9628,88
10.9813,82
10.9999,88
11.0185,79
11.0371,75
11.0556,81
11.0742,106
11.0928,90
11.1114,94
11.1299,88
11.1485,91
11.1671,71
11.1857,97
11.2043,91
11.2228,86
11.2414,98
11.2600,74
11.2786,96
11.2971,81
11.3157,86
11.3343,92
11.3529,93
11.3714,85
11.3900,83
11.4086,110
11.4272,88
11.4457,84
11.4643,89
11.4829,87
11.5015,98
11.5200,84
11.5386,106
11.5572,85
11.5758,77
11.5943,76
11.6129,86
11.6315,92
11.6501,98
11.6686,91
11.6872,102
11.7058,69
11.7244,87
11.7429,80
11.7615,81
11.7801,86
11.7987,96
11.8172,85
11.8358,80
11.8544,90
11.8730,87
11.8915,85
11.9101,78
11.9287,84
11.9473,81
11.9659,77
11.9844,99
12.0030,63
12.0216,79
12.0402,82
12.0587,90
12.0773,79
12.0959,89
12.1145,84
12.1330,83
12.1516,89
12.1702,76
12.1888,83
12.2073,91
12.2259,94
12.2445,76
12.2631,81
12.2816,66
12.3002,77
12.3188,81
12.3374,58
12.3559,72
12.3745,80
12.3931,82
12.4117,85
12.4302,84
12.4488,93
12.4674,93
12.4860,86
12.5045,81
12.5231,68
12.5417,83
12.5603,79
12.5788,71
12.5974,79
12.6160,96
12.6346,82
12.6531,80
12.6717,74
12.6903,78
12.7089,71
12.7274,75
12.7460,81
12.7646,82
12.7832,97
12.8018,75
12.8203,64
12.8389,86
12.8575,78
12.8761,73
12.8946,70
12.9132,80
12.9318,70
12.9504,90
12.9689,75
12.9875,83
13.0061,80
13.0247,71
13.0432,78
13.0618,79
13.0804,69
13.0990,74
13.1175,90
13.1361,66
13.1547,82
13.1733,64
13.1918,74
13.2104,68
13.2290,86
13.2476,74
13.2661,61
13.2847,82
13.3033,67
13.3219,74
13.3404,80
13.3590,82
13.3776,69
13.3962,77
13.4147,69
13.4333,71
13.4519,70
13.4705,62
13.4890,59
13.5076,68
13.5262,71
13.5448,77
13.5634,81
13.5819,94
13.6005,74
13.6191,76
13.6377,73
13.6562,88
13.6748,67
13.6934,81
13.7120,63
13.7305,64
13.7491,61
13.7677,70
13.7863,65
13.8048,68
13.8234,68
13.8420,82
13.8606,55
13.8791,68
13.8977,56
13.9163,75
13.9349,67
13.9534,59
13.9720,51
13.9906,62
14.0092,62
14.0277,70
14.0463,63
14.0649,72
14.0835,60
14.1020,66
14.1206,62
14.1392,66
14.1578,54
14.1763,54
14.1949,83
14.2135,72
14.2321,53
14.2506,63
14.2692,63
14.2878,67
14.3064,76
14.3250,65
14.3435,62
14.3621,69
14.3807,63
14.3993,63
14.4178,61
14.4364,65
14.4550,56
14.4736,52
14.4921,62
14.5107,54
14.5293,57
14.5479,53
14.5664,72
14.5850,69
14.6036,76
14.6222,64
14.6407,82
14.6593,63
14.6779,74
14.6965,55
14.7150,55
14.7336,56
14.7522,67
14.7708,59
14.7893,78
14.8079,71
14.8265,57
14.8451,59
14.8636,61
14.8822,45
14.9008,73
14.9194,60
14.9379,62
14.9565,59
14.9751,58
14.9937,59
15.0122,58
15.0308,67
15.0494,61
15.0680,71
15.0866,64
15.1051,68
15.1237,66
15.1423,62
15.1609,65
15.1794,66
15.1980,54
15.2166,59
15.2352,54
15.2537,64
15.2723,78
15.2909,54
15.3095,67
15.3280,57
15.3466,53
15.3652,67
15.3838,51
15.4023,59
15.4209,75
15.4395,68
15.4581,56
15.4766,51
15.4952,66
15.5138,70
15.5324,57
15.5509,55
15.5695,64
15.5881,60
15.6067,72
15.6252,70
15.6438,63
15.6624,55
15.6810,53
15.6995,60
15.7181,50
15.7367,73
15.7553,62
15.7738,64
15.7924,54
15.8110,58
15.8296,60
15.8482,65
15.8667,54
15.8853,58
15.9039,56
15.9225,57
15.9410,58
15.9596,49
15.9782,61
15.9968,61
16.0153,70
16.0339,55
16.0525,64
16.0711,57
16.0896,58
16.1082,68
16.1268,53
16.1454,48
16.1639,47
16.1825,62
16.2011,62
16.2197,61
16.2382,55
16.2568,60
16.2754,58
16.2940,62
16.3125,66
16.3311,70
16.3497,58
16.3683,39
16.3868,54
16.4054,70
16.4240,58
16.4426,51
16.4611,64
16.4797,54
16.4983,64
16.5169,63
16.5354,57
16.5540,51
16.5726,59
16.5912,62
16.6097,64
16.6283,47
16.6469,53
16.6655,66
16.6841,66
16.7026,72
16.7212,48
16.7398,60
16.7584,65
16.7769,56
16.7955,60
16.8141,71
16.8327,56
16.8512,49
16.8698,57
16.8884,41
16.9070,55
16.9255,59
16.9441,53
16.9627,65
16.9813,65
16.9998,65
17.0184,51
17.0370,58
17.0556,65
17.0741,53
17.0927,51
17.1113,70
17.1299,64
17.1484,69
17.1670,46
17.1856,65
17.2042,70
17.2227,61
17.2413,75
17.2599,65
17.2785,72
17.2970,65
17.3156,48
17.3342,59
17.3528,55
17.3713,79
17.3899,64
17.4085,55
17.4271,50
17.4457,59
17.4642,67
17.4828,65
17.5014,58
17.5200,56
17.5385,58
17.5571,51
17.5757,68
17.5943,65
17.6128,67
17.6314,63
17.6500,59
17.6686,66
17.6871,53
17.7057,57
17.7243,62
17.7429,65
17.7614,63
17.7800,48
17.7986,40
17.8172,56
17.8357,55
17.8543,72
17.8729,76
17.8915,66
17.9100,62
17.9286,50
17.9472,68
17.9658,64
17.9843,65
18.0029,63
18.0215,62
18.0401,57
18.0586,55
18.0772,50
18.0958,51
18.1144,72
18.1329,54
18.1515,56
18.1701,60
18.1887,56
18.2073,59
18.2258,67
18.2444,51
18.2630,61
18.2816,67
18.3001,70
18.3187,64
18.3373,52
18.3559,50
18.3744,73
18.3930,58
18.4116,51
18.4302,61
18.4487,56
18.4673,48
18.4859,57
18.5045,58
18.5230,61
18.5416,60
18.5602,66
18.5788,60
18.5973,66
18.6159,64
18.6345,53
18.6531,68
18.6716,51
18.6902,67
18.7088,43
18.7274,58
18.7459,58
18.7645,62
18.7831,48
18.8017,52
18.8202,62
18.8388,58
18.8574,58
18.8760,62
18.8945,65
18.9131,51
18.9317,57
18.9503,46
18.9689,44
18.9874,60
19.0060,56
19.0246,53
19.0432,60
19.0617,72
19.0803,54
19.0989,63
19.1175,48
19.1360,68
19.1546,64
19.1732,58
19.1918,60
19.2103,78
19.2289,63
19.2475,71
19.2661,58
19.2846,59
19.3032,57
19.3218,55
19.3404,60
19.3589,53
19.3775,72
19.3961,58
19.4147,53
19.4332,56
19.4518,64
19.4704,65
19.4890,62
19.5075,71
19.5261,74
19.5447,65
19.5633,71
19.5818,67
19.6004,58
19.6190,59
19.6376,76
19.6561,79
19.6747,70
19.6933,68
19.7119,69
19.7305,72
19.7490,61
19.7676,55
19.7862,55
19.8048,79
19.8233,63
19.8419,62
19.8605,55
19.8791,64
19.8976,59
19.9162,72
19.9348,68
19.9534,44
19.9719,53
19.9905,64
20.0091,60
20.0277,74
20.0462,57
20.0648,57
20.0834,58
20.1020,62
20.1205,59
20.1391,62
20.1577,60
20.1763,56
20.1948,73
20.2134,68
20.2320,75
20.2506,60
20.2691,72
20.2877,52
20.3063,69
20.3249,74
20.3434,78
20.3620,60
20.3806,70
20.3992,72
20.4177,79
20.4363,54
20.4549,68
20.4735,73
20.4921,67
20.5106,69
20.5292,72
20.5478,71
20.5664,67
20.5849,69
20.6035,73
20.6221,69
20.6407,57
20.6592,63
20.6778,77
20.6964,61
20.7150,85
20.7335,71
20.7521,70
20.7707,69
20.7893,79
20.8078,65
20.8264,83
20.8450,69
20.8636,61
20.8821,80
20.9007,68
20.9193,63
20.9379,81
20.9564,61
20.9750,71
20.9936,72
21.0122,76
21.0307,67
21.0493,73
21.0679,74
21.0865,88
21.1050,92
21.1236,80
21.1422,77
21.1608,80
21.1793,93
21.1979,97
21.2165,133
21.2351,119
21.2537,124
21.2722,120
21.2908,116
21.3094,133
21.3280,154
21.3465,191
21.3651,207
21.3837,163
21.4023,131
21.4208,133
21.4394,86
21.4580,80
21.4766,89
21.4951,65
21.5137,51
21.5323,77
21.5509,63
21.5694,80
21.5880,82
21.6066,72
21.6252,75
21.6437,84
21.6623,72
21.6809,73
21.6995,57
21.7180,79
21.7366,82
21.7552,99
21.7738,65
21.7923,78
21.8109,77
21.8295,66
21.8481,75
21.8666,67
21.8852,63
21.9038,54
21.9224,82
21.9409,70
21.9595,72
21.9781,61
21.9967,76
22.0152,80
22.0338,71
22.0524,77
22.0710,61
22.0896,74
22.1081,76
22.1267,80
22.1453,78
22.1639,79
22.1824,73
22.2010,89
22.2196,72
22.2382,72
22.2567,75
22.2753,69
22.2939,66
22.3125,73
22.3310,67
22.3496,75
22.3682,62
22.3868,75
22.4053,63
22.4239,60
22.4425,75
22.4611,85
22.4796,75
22.4982,70
22.5168,77
22.5354,66
22.5539,70
22.5725,74
22.5911,90
22.6097,66
22.6282,73
22.6468,67
22.6654,63
22.6840,51
22.7025,69
22.7211,58
22.7397,69
22.7583,89
22.7768,71
22.7954,70
22.8140,75
22.8326,85
22.8512,84
22.8697,70
22.8883,85
22.9069,66
22.9255,66
22.9440,61
22.9626,69
22.9812,72
22.9998,83
23.0183,95
23.0369,84
23.0555,67
23.0741,70
23.0926,72
23.1112,68
23.1298,64
23.1484,73
23.1669,66
23.1855,74
23.2041,91
23.2227,50
23.2412,67
23.2598,80
23.2784,89
23.2970,63
23.3155,94
23.3341,45
23.3527,68
23.3713,67
23.3898,85
23.4084,70
23.4270,58
23.4456,72
23.4641,73
23.4827,80
23.5013,76
23.5199,73
23.5384,75
23.5570,88
23.5756,65
23.5942,83
23.6128,74
23.6313,78
23.6499,85
23.6685,74
23.6871,72
23.7056,77
23.7242,70
23.7428,78
23.7614,80
23.7799,84
23.7985,87
23.8171,85
23.8357,72
23.8542,57
23.8728,85
23.8914,76
23.9100,65
23.9285,84
23.9471,74
23.9657,79
23.9843,83
24.0028,53
24.0214,84
24.0400,79
24.0586,64
24.0771,68
24.0957,82
24.1143,69
24.1329,82
24.1514,74
24.1700,67
24.1886,78
24.2072,86
24.2257,63
24.2443,89
24.2629,72
24.2815,87
24.3000,86
24.3186,79
24.3372,84
24.3558,86
24.3744,94
24.3929,85
24.4115,75
24.4301,80
24.4487,68
24.4672,86
24.4858,68
24.5044,84
24.5230,71
24.5415,54
24.5601,91
24.5787,83
24.5973,71
24.6158,90
24.6344,81
24.6530,91
24.6716,77
24.6901,53
24.7087,76
24.7273,76
24.7459,77
24.7644,83
24.7830,67
24.8016,79
24.8202,63
24.8387,77
24.8573,61
24.8759,75
24.8945,63
24.9130,85
24.9316,79
24.9502,84
24.9688,71
24.9873,74
25.0059,68
25.0245,92
25.0431,80
25.0616,91
25.0802,83
25.0988,69
25.1174,52
25.1360,74
25.1545,77
25.1731,75
25.1917,71
25.2103,76
25.2288,71
25.2474,53
25.2660,71
25.2846,70
25.3031,78
25.3217,74
25.3403,69
25.3589,65
25.3774,55
25.3960,61
25.4146,75
25.4332,77
25.4517,79
25.4703,66
25.4889,78
25.5075,69
25.5260,65
25.5446,60
25.5632,79
25.5818,83
25.6003,79
25.6189,71
25.6375,74
25.6561,79
25.6746,80
25.6932,74
25.7118,67
25.7304,69
25.7489,65
25.7675,54
25.7861,78
25.8047,70
25.8232,53
25.8418,58
25.8604,78
25.8790,89
25.8976,68
25.9161,61
25.9347,85
25.9533,80
25.9719,85
25.9904,62
26.0090,56
26.0276,79
26.0462,73
26.0647,83
26.0833,84
26.1019,68
26.1205,72
26.1390,81
26.1576,70
26.1762,74
26.1948,63
26.2133,83
26.2319,80
26.2505,70
26.2691,59
26.2876,74
26.3062,65
26.3248,64
26.3434,60
26.3619,65
26.3805,83
26.3991,72
26.4177,67
26.4362,76
26.4548,68
26.4734,79
26.4920,54
26.5105,73
26.5291,62
26.5477,86
26.5663,80
26.5848,69
26.6034,69
26.6220,64
26.6406,78
26.6591,58
26.6777,70
26.6963,69
26.7149,71
26.7335,76
26.7520,63
26.7706,64
26.7892,63
26.8078,74
26.8263,71
26.8449,55
26.8635,73
26.8821,59
26.9006,67
26.9192,56
26.9378,67
26.9564,51
26.9749,71
26.9935,64
27.0121,76
27.0307,62
27.0492,74
27.0678,68
27.0864,76
27.1050,60
27.1235,71
27.1421,75
27.1607,83
27.1793,102
27.1978,96
27.2164,112
27.2350,88
27.2536,92
27.2721,74
27.2907,67
27.3093,73
27.3279,64
27.3464,75
27.3650,74
27.3836,68
27.4022,85
27.4207,70
27.4393,65
27.4579,72
27.4765,67
27.4951,72
27.5136,72
27.5322,68
27.5508,70
27.5694,79
27.5879,83
27.6065,51
27.6251,64
27.6437,73
27.6622,62
27.6808,55
27.6994,66
27.7180,76
27.7365,70
27.7551,72
27.7737,51
27.7923,63
27.8108,61
27.8294,64
27.8480,78
27.8666,54
27.8851,63
27.9037,46
27.9223,61
27.9409,50
27.9594,59
27.9780,62
27.9966,60
28.0152,64
28.0337,67
28.0523,69
28.0709,70
28.0895,59
28.1080,74
28.1266,63
28.1452,59
28.1638,55
28.1823,61
28.2009,66
28.2195,59
28.2381,55
28.2567,65
28.2752,49
28.2938,73
28.3124,58
28.3310,61
28.3495,69
28.3681,65
28.3867,49
28.4053,72
28.4238,60
28.4424,55
28.4610,66
28.4796,67
28.4981,58
28.5167,54
28.5353,67
28.5539,50
28.5724,59
28.5910,62
28.6096,65
28.6282,61
28.6467,60
28.6653,59
28.6839,64
28.7025,69
28.7210,75
28.7396,60
28.7582,50
28.7768,67
28.7953,63
28.8139,60
28.8325,46
28.8511,66
28.8696,64
28.8882,72
28.9068,79
28.9254,43
28.9439,66
28.9625,53
28.9811,66
28.9997,63
29.0183,75
29.0368,61
29.0554,70
29.0740,58
29.0926,55
29.1111,55
29.1297,67
29.1483,64
29.1669,49
29.1854,49
29.2040,75
29.2226,61
29.2412,75
29.2597,62
29.2783,68
29.2969,51
29.3155,61
29.3340,66
29.3526,47
29.3712,45
29.3898,54
29.4083,49
29.4269,57
29.4455,72
29.4641,68
29.4826,71
29.5012,61
29.5198,54
29.5384,54
29.5569,49
29.5755,51
29.5941,42
29.6127,67
29.6312,61
29.6498,45
29.6684,47
29.6870,50
29.7055,61
29.7241,46
29.7427,55
29.7613,66
29.7799,54
29.7984,48
29.8170,66
29.8356,61
29.8542,49
29.8727,54
29.8913,56
29.9099,49
29.9285,57
29.9470,60
29.9656,57
29.9842,51
30.0028,84
30.0213,75
30.0399,53
30.0585,50
30.0771,58
30.0956,65
30.1142,52
30.1328,68
30.1514,52
30.1699,66
30.1885,61
30.2071,51
30.2257,50
30.2442,63
30.2628,64
30.2814,64
30.3000,57
30.3185,82
30.3371,71
30.3557,98
30.3743,109
30.3928,114
30.4114,92
30.4300,88
30.4486,98
30.4671,86
30.4857,78
30.5043,59
30.5229,69
30.5415,59
30.5600,50
30.5786,55
30.5972,67
30.6158,61
30.6343,49
30.6529,62
30.6715,53
30.6901,55
30.7086,56
30.7272,49
30.7458,50
30.7644,61
30.7829,60
30.8015,46
30.8201,52
30.8387,45
30.8572,61
30.8758,46
30.8944,69
30.9130,54
30.9315,48
30.9501,44
30.9687,41
30.9873,52
31.0058,51
31.0244,51
31.0430,54
31.0616,48
31.0801,58
31.0987,47
31.1173,43
31.1359,61
31.1544,33
31.1730,45
31.1916,66
31.2102,40
31.2287,37
31.2473,42
31.2659,53
31.2845,58
31.3030,51
31.3216,52
31.3402,52
31.3588,51
31.3774,31
31.3959,45
31.4145,55
31.4331,49
31.4517,33
31.4702,58
31.4888,53
31.5074,50
31.5260,50
31.5445,51
31.5631,47
31.5817,44
31.6003,56
31.6188,50
31.6374,44
31.6560,63
31.6746,57
31.6931,51
31.7117,50
31.7303,56
31.7489,40
31.7674,41
31.7860,36
31.8046,42
31.8232,58
31.8417,58
31.8603,41
31.8789,48
31.8975,46
31.9160,48
31.9346,45
31.9532,52
31.9718,53
31.9903,47
32.0089,38
32.0275,47
32.0461,50
32.0646,50
32.0832,49
32.1018,57
32.1204,38
32.1390,50
32.1575,57
32.1761,65
32.1947,52
32.2133,52
32.2318,47
32.2504,50
32.2690,49
32.2876,47
32.3061,44
32.3247,46
32.3433,54
32.3619,61
32.3804,49
32.3990,44
32.4176,63
32.4362,54
32.4547,83
32.4733,60
32.4919,55
32.5105,65
32.5290,58
32.5476,44
32.5662,50
32.5848,48
32.6033,45
32.6219,49
32.6405,66
32.6591,52
32.6776,54
32.6962,55
32.7148,41
32.7334,50
32.7519,40
32.7705,51
32.7891,56
32.8077,45
32.8262,39
32.8448,46
32.8634,47
32.8820,51
32.9006,48
32.9191,45
32.9377,37
32.9563,48
32.9749,40
32.9934,42
33.0120,49
33.0306,53
33.0492,47
33.0677,55
33.0863,41
33.1049,50
33.1235,50
33.1420,49
33.1606,39
33.1792,54
33.1978,49
33.2163,43
33.2349,46
33.2535,36
33.2721,48
33.2906,47
33.3092,42
33.3278,48
33.3464,40
33.3649,40
33.3835,50
33.4021,32
33.4207,49
33.4392,44
33.4578,51
33.4764,57
33.4950,49
33.5135,46
33.5321,39
33.5507,46
33.5693,35
33.5878,37
33.6064,41
33.6250,40
33.6436,51
33.6622,50
33.6807,57
33.6993,44
33.7179,53
33.7365,34
33.7550,36
33.7736,39
33.7922,37
33.8108,41
33.8293,36
33.8479,42
33.8665,38
33.8851,43
33.9036,45
33.9222,42
33.9408,44
33.9594,37
33.9779,41
33.9965,37
34.0151,37
34.0337,47
34.0522,37
34.0708,51
34.0894,52
34.1080,36
34.1265,45
34.1451,41
34.1637,39
34.1823,41
34.2008,37
34.2194,35
34.2380,40
34.2566,45
34.2751,43
34.2937,40
34.3123,39
34.3309,39
34.3494,45
34.3680,49
34.3866,46
34.4052,34
34.4238,51
34.4423,36
34.4609,36
34.4795,46
34.4981,48
34.5166,44
34.5352,48
34.5538,44
34.5724,50
34.5909,47
34.6095,50
34.6281,45
34.6467,52
34.6652,36
34.6838,60
34.7024,53
34.7210,41
34.7395,53
34.7581,41
34.7767,59
34.7953,56
34.8138,51
34.8324,58
34.8510,52
34.8696,45
34.8881,36
34.9067,51
34.9253,38
34.9439,43
34.9624,32
34.9810,38
34.9996,41
35.0182,33
35.0367,34
35.0553,45
35.0739,29
35.0925,43
35.1110,43
35.1296,45
35.1482,35
35.1668,36
35.1854,47
35.2039,37
35.2225,36
35.2411,29
35.2597,34
35.2782,40
35.2968,30
35.3154,26
35.3340,42
35.3525,38
35.3711,56
35.3897,33
35.4083,39
35.4268,44
35.4454,43
35.4640,32
35.4826,43
35.5011,49
35.5197,39
35.5383,30
35.5569,41
35.5754,28
35.5940,39
35.6126,31
35.6312,39
35.6497,35
35.6683,44
35.6869,35
35.7055,42
35.7240,38
35.7426,41
35.7612,34
35.7798,34
35.7983,42
35.8169,41
35.8355,43
35.8541,34
35.8726,45
35.8912,42
35.9098,34
35.9284,35
35.9469,37
35.9655,48
35.9841,42
36.0027,46
36.0213,40
36.0398,48
36.0584,37
36.0770,50
36.0956,41
36.1141,34
36.1327,35
36.1513,41
36.1699,33
36.1884,34
36.2070,24
36.2256,40
36.2442,39
36.2627,43
36.2813,39
36.2999,35
36.3185,42
36.3370,30
36.3556,35
36.3742,28
36.3928,44
36.4113,28
36.4299,33
36.4485,30
36.4671,43
36.4856,30
36.5042,36
36.5228,43
36.5414,30
36.5599,32
36.5785,29
36.5971,35
36.6157,36
36.6342,31
36.6528,34
36.6714,42
36.6900,38
36.7085,31
36.7271,44
36.7457,44
36.7643,39
36.7829,32
36.8014,21
36.8200,28
36.8386,29
36.8572,44
36.8757,34
36.8943,30
36.9129,43
36.9315,30
36.9500,29
36.9686,35
36.9872,37
37.0058,23
37.0243,30
37.0429,36
37.0615,38
37.0801,31
37.0986,32
37.1172,26
37.1358,23
37.1544,33
37.1729,41
37.1915,41
37.2101,41
37.2287,37
37.2472,30
37.2658,26
37.2844,37
37.3030,46
37.3215,35
37.3401,41
37.3587,32
37.3773,40
37.3958,32
37.4144,49
37.4330,62
37.4516,56
37.4701,57
37.4887,41
37.5073,41
37.5259,50
37.5445,34
37.5630,41
37.5816,40
37.6002,35
37.6188,28
37.6373,28
37.6559,42
37.6745,26
37.6931,43
37.7116,44
37.7302,28
37.7488,25
37.7674,38
37.7859,26
37.8045,36
37.8231,34
37.8417,35
37.8602,28
37.8788,33
37.8974,31
37.9160,24
37.9345,36
37.9531,28
37.9717,35
37.9903,34
38.0088,31
38.0274,37
38.0460,27
38.0646,23
38.0831,28
38.1017,32
38.1203,27
38.1389,34
38.1574,31
38.1760,40
38.1946,23
38.2132,30
38.2317,29
38.2503,33
38.2689,23
38.2875,31
38.3061,29
38.3246,29
38.3432,23
38.3618,30
38.3804,25
38.3989,32
38.4175,33
38.4361,33
38.4547,25
38.4732,27
38.4918,44
38.5104,37
38.5290,25
38.5475,29
38.5661,32
38.5847,31
38.6033,27
38.6218,30
38.6404,36
38.6590,26
38.6776,37
38.6961,22
38.7147,30
38.7333,37
38.7519,30
38.7704,35
38.7890,32
38.8076,28
38.8262,30
38.8447,39
38.8633,36
38.8819,36
38.9005,28
38.9190,39
38.9376,36
38.9562,26
38.9748,25
38.9933,20
39.0119,38
39.0305,27
39.0491,30
39.0677,31
39.0862,27
39.1048,28
39.1234,34
39.1420,38
39.1605,32
39.1791,35
39.1977,26
39.2163,30
39.2348,29
39.2534,32
39.2720,31
39.2906,30
39.3091,27
39.3277,26
39.3463,35
39.3649,33
39.3834,32
39.4020,36
39.4206,22
39.4392,25
39.4577,39
39.4763,25
39.4949,29
39.5135,27
39.5320,25
39.5506,31
39.5692,33
39.5878,30
39.6063,32
39.6249,26
39.6435,27
39.6621,20
39.6806,28
39.6992,33
39.7178,30
39.7364,32
39.7549,24
39.7735,34
39.7921,33
39.8107,22
39.8293,31
39.8478,27
39.8664,23
39.8850,39
39.9036,25
39.9221,31
39.9407,28
39.9593,26
39.9779,25
39.9964,35
40.0150,30
40.0336,27
40.0522,33
40.0707,30
40.0893,31
40.1079,30
40.1265,23
40.1450,28
40.1636,32
40.1822,31
40.2008,28
40.2193,28
40.2379,26
40.2565,14
40.2751,26
40.2936,31
40.3122,24
40.3308,24
40.3494,29
40.3679,32
40.3865,19
40.4051,23
40.4237,31
40.4422,24
40.4608,22
40.4794,18
40.4980,25
40.5165,27
40.5351,29
40.5537,29
40.5723,42
40.5908,28
40.6094,31
40.6280,20
40.6466,36
40.6652,25
40.6837,29
40.7023,24
40.7209,18
40.7395,29
40.7580,29
40.7766,31
40.7952,28
40.8138,34
40.8323,28
40.8509,25
40.8695,46
40.8881,27
40.9066,20
40.9252,24
40.9438,21
40.9624,25
40.9809,30
40.9995,28
41.0181,29
41.0367,27
41.0552,28
41.0738,35
41.0924,32
41.1110,28
41.1295,27
41.1481,32
41.1667,23
41.1853,29
41.2038,30
41.2224,22
41.2410,24
41.2596,35
41.2781,29
41.2967,28
41.3153,39
41.3339,25
41.3524,22
41.3710,29
41.3896,30
41.4082,28
41.4268,21
41.4453,18
41.4639,25
41.4825,32
41.5011,22
41.5196,23
41.5382,32
41.5568,29
41.5754,28
41.5939,28
41.6125,24
41.6311,25
41.6497,26
41.6682,28
41.6868,32
41.7054,20
41.7240,26
41.7425,25
41.7611,28
41.7797,31
41.7983,37
41.8168,32
41.8354,30
41.8540,26
41.8726,20
41.8911,23
41.9097,34
41.9283,27
41.9469,32
41.9654,25
41.9840,30
42.0026,24
42.0212,29
42.0397,26
42.0583,18
42.0769,18
42.0955,29
42.1140,32
42.1326,28
42.1512,31
42.1698,28
42.1884,36
42.2069,21
42.2255,22
42.2441,24
42.2627,28
42.2812,25
42.2998,29
42.3184,20
42.3370,27
42.3555,21
42.3741,33
42.3927,30
42.4113,30
42.4298,19
42.4484,19
42.4670,24
42.4856,18
42.5041,27
42.5227,19
42.5413,24
42.5599,24
42.5784,24
42.5970,36
42.6156,21
42.6342,34
42.6527,28
42.6713,24
42.6899,38
42.7085,32
42.7270,29
42.7456,25
42.7642,35
42.7828,30
42.8013,32
42.8199,32
42.8385,41
42.8571,25
42.8756,19
42.8942,33
42.9128,32
42.9314,21
42.9500,36
42.9685,27
42.9871,41
43.0057,28
43.0243,36
43.0428,21
43.0614,26
43.0800,28
43.0986,26
43.1171,35
43.1357,41
43.1543,25
43.1729,24
43.1914,38
43.2100,24
43.2286,40
43.2472,36
43.2657,38
43.2843,31
43.3029,31
43.3215,31
43.3400,21
43.3586,36
43.3772,28
43.3958,37
43.4143,29
43.4329,34
43.4515,39
43.4701,41
43.4886,39
43.5072,63
43.5258,58
43.5444,40
43.5629,43
43.5815,33
43.6001,42
43.6187,41
43.6372,29
43.6558,25
43.6744,23
43.6930,16
43.7116,25
43.7301,29
43.7487,15
43.7673,29
43.7859,29
43.8044,18
43.8230,23
43.8416,23
43.8602,28
43.8787,30
43.8973,31
43.9159,16
43.9345,27
43.9530,28
43.9716,24
43.9902,22
44.0088,25
44.0273,25
44.0459,30
44.0645,34
44.0831,24
44.1016,30
44.1202,27
44.1388,26
44.1574,23
44.1759,21
44.1945,34
44.2131,27
44.2317,23
44.2502,24
44.2688,35
44.2874,31
44.3060,30
44.3245,29
44.3431,21
44.3617,27
44.3803,24
44.3988,33
44.4174,26
44.4360,31
44.4546,31
44.4732,40
44.4917,25
44.5103,30
44.5289,17
44.5475,25
44.5660,23
44.5846,33
44.6032,35
44.6218,34
44.6403,30
44.6589,35
44.6775,40
44.6961,29
44.7146,25
44.7332,23
44.7518,32
44.7704,16
44.7889,32
44.8075,21
44.8261,26
44.8447,25
44.8632,26
44.8818,25
44.9004,17
44.9190,29
44.9375,28
44.9561,34
44.9747,20
44.9933,33
45.0118,22
45.0304,27
45.0490,29
45.0676,31
45.0861,25
45.1047,26
45.1233,26
45.1419,22
45.1604,28
45.1790,23
45.1976,23
45.2162,21
45.2347,37
45.2533,26
45.2719,27
45.2905,24
45.3091,25
45.3276,27
45.3462,29
45.3648,21
45.3834,28
45.4019,22
45.4205,32
45.4391,26
45.4577,22
45.4762,19
45.4948,27
45.5134,26
45.5320,26
45.5505,22
45.5691,27
45.5877,21
45.6063,28
45.6248,26
45.6434,31
45.6620,30
45.6806,27
45.6991,32
45.7177,27
45.7363,21
45.7549,24
45.7734,21
45.7920,23
45.8106,32
45.8292,23
45.8477,25
45.8663,35
45.8849,32
45.9035,19
45.9220,27
45.9406,31
45.9592,30
45.9778,24
45.9963,19
46.0149,24
46.0335,30
46.0521,29
46.0707,16
46.0892,23
46.1078,18
46.1264,33
46.1450,23
46.1635,28
46.1821,20
46.2007,20
46.2193,22
46.2378,22
46.2564,23
46.2750,18
46.2936,14
46.3121,19
46.3307,27
46.3493,27
46.3679,22
46.3864,27
46.4050,29
46.4236,24
46.4422,19
46.4607,22
46.4793,24
46.4979,30
46.5165,29
46.5350,26
46.5536,28
46.5722,31
46.5908,36
46.6093,28
46.6279,25
46.6465,22
46.6651,20
46.6836,23
46.7022,23
46.7208,23
46.7394,23
46.7579,26
46.7765,23
46.7951,22
46.8137,28
46.8323,26
46.8508,25
46.8694,23
46.8880,33
46.9066,14
46.9251,14
46.9437,28
46.9623,28
46.9809,22
46.9994,25
47.0180,23
47.0366,30
47.0552,12
47.0737,23
47.0923,23
47.1109,30
47.1295,23
47.1480,22
47.1666,27
47.1852,20
47.2038,30
47.2223,17
47.2409,25
47.2595,35
47.2781,18
47.2966,17
47.3152,22
47.3338,19
47.3524,21
47.3709,26
47.3895,27
47.4081,30
47.4267,29
47.4452,13
47.4638,20
47.4824,24
47.5010,25
47.5195,26
47.5381,22
47.5567,24
47.5753,19
47.5939,21
47.6124,26
47.6310,23
47.6496,29
47.6682,28
47.6867,17
47.7053,33
47.7239,23
47.7425,17
47.7610,31
47.7796,26
47.7982,18
47.8168,29
47.8353,18
47.8539,23
47.8725,24
47.8911,21
47.9096,23
47.9282,18
47.9468,13
47.9654,31
47.9839,30
48.0025,17
48.0211,26
48.0397,30
48.0582,28
48.0768,20
48.0954,28
48.1140,25
48.1325,26
48.1511,27
48.1697,20
48.1883,23
48.2068,27
48.2254,19
48.2440,26
48.2626,18
48.2811,27
48.2997,22
48.3183,31
48.3369,22
48.3555,30
48.3740,14
48.3926,21
48.4112,23
48.4298,24
48.4483,26
48.4669,21
48.4855,22
48.5041,27
48.5226,23
48.5412,27
48.5598,16
48.5784,21
48.5969,22
48.6155,31
48.6341,13
48.6527,15
48.6712,20
48.6898,23
48.7084,30
48.7270,12
48.7455,25
48.7641,29
48.7827,20
48.8013,25
48.8198,18
48.8384,28
48.8570,25
48.8756,25
48.8941,38
48.9127,38
48.9313,39
48.9499,50
48.9684,40
48.9870,42
49.0056,37
49.0242,33
49.0427,24
49.0613,27
49.0799,35
49.0985,39
49.1171,33
49.1356,18
49.1542,19
49.1728,25
49.1914,28
49.2099,27
49.2285,23
49.2471,31
49.2657,19
49.2842,18
49.3028,19
49.3214,20
49.3400,20
49.3585,18
49.3771,22
49.3957,22
49.4143,24
49.4328,30
49.4514,28
49.4700,27
49.4886,25
49.5071,23
49.5257,27
49.5443,24
49.5629,20
49.5814,26
49.6000,22
49.6186,16
49.6372,22
49.6557,21
49.6743,25
49.6929,16
49.7115,23
49.7300,28
49.7486,17
49.7672,16
49.7858,27
49.8043,16
49.8229,19
49.8415,26
49.8601,29
49.8786,21
49.8972,35
49.9158,25
49.9344,21
49.9530,22
49.9715,16
49.9901,23
50.0087,24
50.0273,19
50.0458,25
50.0644,22
50.0830,25
50.1016,23
50.1201,24
50.1387,26
50.1573,18
50.1759,25
50.1944,27
50.2130,22
50.2316,24
50.2502,22
50.2687,22
50.2873,19
50.3059,13
50.3245,29
50.3430,28
50.3616,25
50.3802,15
50.3988,26
50.4173,26
50.4359,19
50.4545,23
50.4731,20
50.4916,24
50.5102,26
50.5288,22
50.5474,21
50.5659,21
50.5845,28
50.6031,27
50.6217,17
50.6402,13
50.6588,24
50.6774,14
50.6960,17
50.7146,21
50.7331,23
50.7517,23
50.7703,25
50.7889,34
50.8074,18
50.8260,22
50.8446,24
50.8632,15
50.8817,26
50.9003,24
50.9189,23
50.9375,29
50.9560,23
50.9746,19
50.9932,19
51.0118,16
51.0303,18
51.0489,27
51.0675,20
51.0861,17
51.1046,19
51.1232,18
51.1418,30
51.1604,29
51.1789,28
51.1975,19
51.2161,24
51.2347,19
51.2532,18
51.2718,13
51.2904,32
51.3090,21
51.3275,27
51.3461,30
51.3647,22
51.3833,14
51.4018,26
51.4204,27
51.4390,24
51.4576,25
51.4762,21
51.4947,11
51.5133,25
51.5319,24
51.5505,26
51.5690,24
51.5876,30
51.6062,34
51.6248,21
51.6433,14
51.6619,16
51.6805,19
51.6991,22
51.7176,24
51.7362,20
51.7548,19
51.7734,23
51.7919,32
51.8105,26
51.8291,22
51.8477,28
51.8662,19
51.8848,22
51.9034,25
51.9220,21
51.9405,24
51.9591,24
51.9777,22
51.9963,26
52.0148,14
52.0334,23
52.0520,28
52.0706,21
52.0891,24
52.1077,20
52.1263,32
52.1449,26
52.1634,15
52.1820,22
52.2006,24
52.2192,21
52.2378,22
52.2563,27
52.2749,19
52.2935,18
52.3121,18
52.3306,32
52.3492,26
52.3678,18
52.3864,31
52.4049,18
52.4235,17
52.4421,22
52.4607,23
52.4792,15
52.4978,23
52.5164,14
52.5350,15
52.5535,31
52.5721,18
52.5907,14
52.6093,14
52.6278,26
52.6464,27
52.6650,26
52.6836,20
52.7021,24
52.7207,20
52.7393,20
52.7579,25
52.7764,21
52.7950,11
52.8136,20
52.8322,26
52.8507,24
52.8693,22
52.8879,19
52.9065,24
52.9250,24
52.9436,25
52.9622,21
52.9808,20
52.9994,27
53.0179,27
53.0365,18
53.0551,25
53.0737,26
53.0922,21
53.1108,28
53.1294,23
53.1480,16
53.1665,26
53.1851,26
53.2037,23
53.2223,18
53.2408,17
53.2594,27
53.2780,26
53.2966,23
53.3151,30
53.3337,20
53.3523,15
53.3709,14
53.3894,28
53.4080,25
53.4266,20
53.4452,17
53.4637,21
53.4823,17
53.5009,21
53.5195,19
53.5380,26
53.5566,28
53.5752,19
53.5938,18
53.6123,21
53.6309,27
53.6495,32
53.6681,16
53.6866,23
53.7052,24
53.7238,21
53.7424,24
53.7610,17
53.7795,18
53.7981,20
53.8167,27
53.8353,20
53.8538,16
53.8724,18
53.8910,23
53.9096,21
53.9281,30
53.9467,19
53.9653,25
53.9839,35
54.0024,31
54.0210,25
54.0396,26
54.0582,28
54.0767,19
54.0953,21
54.1139,29
54.1325,13
54.1510,28
54.1696,16
54.1882,23
54.2068,15
54.2253,19
54.2439,11
54.2625,15
54.2811,28
54.2996,22
54.3182,21
54.3368,19
54.3554,24
54.3739,18
54.3925,24
54.4111,20
54.4297,17
54.4482,16
54.4668,23
54.4854,26
54.5040,24
54.5225,17
54.5411,23
54.5597,19
54.5783,24
54.5969,20
54.6154,24
54.6340,23
54.6526,18
54.6712,13
54.6897,25
54.7083,20
54.7269,21
54.7455,19
54.7640,21
54.7826,30
54.8012,21
54.8198,20
54.8383,27
54.8569,24
54.8755,27
54.8941,20
54.9126,27
54.9312,27
54.9498,18
54.9684,24
54.9869,33
55.0055,17
55.0241,32
55.0427,27
55.0612,15
55.0798,18
55.0984,25
55.1170,21
55.1355,24
55.1541,24
55.1727,16
55.1913,18
55.2098,21
55.2284,21
55.2470,27
55.2656,22
55.2841,20
55.3027,22
55.3213,11
55.3399,27
55.3585,15
55.3770,16
55.3956,24
55.4142,24
55.4328,11
55.4513,17
55.4699,19
55.4885,22
55.5071,25
55.5256,20
55.5442,25
55.5628,18
55.5814,36
55.5999,26
55.6185,22
55.6371,20
55.6557,24
55.6742,19
55.6928,19
55.7114,26
55.7300,22
55.7485,16
55.7671,26
55.7857,32
55.8043,22
55.8228,21
55.8414,29
55.8600,17
55.8786,23
55.8971,27
55.9157,12
55.9343,24
55.9529,21
55.9714,15
55.9900,19
56.0086,23
56.0272,26
56.0457,23
56.0643,26
56.0829,11
56.1015,21
56.1201,28
56.1386,27
56.1572,25
56.1758,20
56.1944,24
56.2129,21
56.2315,23
56.2501,22
56.2687,39
56.2872,33
56.3058,28
56.3244,27
56.3430,21
56.3615,24
56.3801,27
56.3987,23
56.4173,21
56.4358,22
56.4544,26
56.4730,31
56.4916,21
56.5101,34
56.5287,19
56.5473,20
56.5659,26
56.5844,21
56.6030,21
56.6216,22
56.6402,23
56.6587,20
56.6773,21
56.6959,19
56.7145,23
56.7330,21
56.7516,20
56.7702,20
56.7888,25
56.8073,18
56.8259,13
56.8445,24
56.8631,17
56.8817,18
56.9002,14
56.9188,22
56.9374,22
56.9560,21
56.9745,22
56.9931,17
57.0117,27
57.0303,16
57.0488,24
57.0674,24
57.0860,22
57.1046,29
57.1231,30
57.1417,16
57.1603,26
57.1789,17
57.1974,21
57.2160,13
57.2346,17
57.2532,34
57.2717,19
57.2903,18
57.3089,24
57.3275,20
57.3460,24
57.3646,24
57.3832,20
57.4018,19
57.4203,24
57.4389,22
57.4575,23
57.4761,18
57.4946,24
57.5132,26
57.5318,22
57.5504,30
57.5689,25
57.5875,16
57.6061,26
57.6247,14
57.6433,20
57.6618,17
57.6804,15
57.6990,16
57.7176,19
57.7361,26
57.7547,16
57.7733,23
57.7919,18
57.8104,23
57.8290,17
57.8476,25
57.8662,25
57.8847,25
57.9033,23
57.9219,25
57.9405,29
57.9590,14
57.9776,21
57.9962,28
58.0148,19
58.0333,25
58.0519,20
58.0705,22
58.0891,10
58.1076,16
58.1262,20
58.1448,24
58.1634,9
58.1819,18
58.2005,22
58.2191,27
58.2377,21
58.2562,16
58.2748,33
58.2934,25
58.3120,17
58.3305,21
58.3491,22
58.3677,21
58.3863,18
58.4049,13
58.4234,15
58.4420,21
58.4606,22
58.4792,16
58.4977,15
58.5163,21
58.5349,19
58.5535,21
58.5720,20
58.5906,19
58.6092,24
58.6278,18
58.6463,26
58.6649,21
58.6835,16
58.7021,15
58.7206,15
58.7392,26
58.7578,20
58.7764,10
58.7949,19
58.8135,18
58.8321,18
58.8507,17
58.8692,16
58.8878,23
58.9064,17
58.9250,10
58.9435,13
58.9621,16
58.9807,17
58.9993,29
59.0178,23
59.0364,22
59.0550,23
59.0736,21
59.0921,21
59.1107,25
59.1293,23
59.1479,19
59.1664,18
59.1850,13
59.2036,15
59.2222,22
59.2408,13
59.2593,21
59.2779,18
59.2965,20
59.3151,16
59.3336,21
59.3522,18
59.3708,13
59.3894,16
59.4079,26
59.4265,19
59.4451,20
59.4637,22
59.4822,24
59.5008,27
59.5194,21
59.5380,17
59.5565,25
59.5751,23
59.5937,19
59.6123,9
59.6308,19
59.6494,21
59.6680,22
59.6866,27
59.7051,18
59.7237,17
59.7423,20
59.7609,21
59.7794,26
59.7980,18
59.8166,18
59.8352,19
59.8537,20
59.8723,19
59.8909,16
59.9095,19
59.9280,14
59.9466,20
59.9652,20
59.9838,25
60.0024,15
