; (content of file Y:\Sam\Apurva-07-20-2022\puck1\ML_20220721_18_SJD_0_LaB6-4min.raw)
_FILEVERSION = 3
_SAMPLE = ML_20220721_18_SJD_0_LaB6-4min
_+SAMPLE = 
_SITE = USA
_USER = Administrator
_GONIOMETER_CODE = 20
; Goniometer : D8 theta/2theta, stage : Unknown
_ATTACHMENTS_CODE = 0
_GONIOMETER_RADIUS = 200.5
_FIXED_DIVSLIT = 0.6
_FIXED_SAMPLESLIT = 0
_SOLLER_SLITS = 2
_FIXED_DETSLIT = 9.55
_MONOCHROMATOR = 0
; Incident beam monochromator : None
_SOLLER_SLITS_2 = N
_THIN_FILM = N
_BETA_FILTER = Y
_FIXED_ANTISLIT = 5.89
_ANALYZER_CODE = 0
; Received beam analyzer : None
_DATEMEASURED = "25-Jul-2022 15:13:15"
_WL_UNIT = A
_WL1 = 1.5406
_WL2 = 1.54439
_WL3 = 1.39222
_WLRATIO = 0.5
_ANODE = Cu
_V4_INF_CREATOR = XRDWizard
_V4_INF_CREATOR_VERSION = V2.9.0.22
_V4_INF_WIZARD_VERSION = V2.9.0.22
_V4_INF_WIZARD_ADDINS = V2.9.0.22
_V4_INF_WIZARD_DOCTYPE = XRD
_V4_INF_OSUSER = McQueenLab
_V4_INF_USER = Administrator
_V4_INF_SITE = USA
_V4_INF_SAMPLEID = ML_20220721_18_SJD_0_LaB6-4min

; Data for range 1
_DRIVE = COUPLED
_STEPTIME = 11.28
_STEPSIZE = 0.0185756
_STEPMODE = C
_START = 5
_THETA = 2.5
_2THETA = 5
_KHI = 0
_PHI = 0
_X = 0
_Y = 0
_Z = 0
_DETECTOR = 5
; Detector type : Unknown
_DETECTORSLIT = unkn
_AUX1 = 0
_AUX2 = 0
_AUX3 = 0
_TIMESTARTED = 15
_TEMP_RATE = -1
_TEMP_DELAY = -1
_KV = 40
_MA = 40
_RANGE_WL = 1.5406
_3DPLANE = 0
_V4_ADDITIONALDETECTOR = 257
_V4_PSD2THETA = 3.365
_V4_PSDCHANNEL1 = 0
_V4_PSDAPERTURE = 12.68
_V4_PSDTYPE = 5
_V4_PSDFIXED = 0
_V4_COUNTERS_MASK = 4096
_V4_DRIVES_MASK = 0
_V4_ENCODERS_MASK = 0
_2THETACOUNTS = 1
; 2THETA  PSD
   5.0000        288
   5.0186        279
   5.0372        275
   5.0557        249
   5.0743        244
   5.0929        270
   5.1115        267
   5.1300        264
   5.1486        269
   5.1672        265
   5.1858        303
   5.2043        260
   5.2229        233
   5.2415        262
   5.2601        247
   5.2786        243
   5.2972        253
   5.3158        242
   5.3344        250
   5.3529        230
   5.3715        225
   5.3901        258
   5.4087        251
   5.4272        235
   5.4458        247
   5.4644        252
   5.4830        221
   5.5015        232
   5.5201        221
   5.5387        235
   5.5573        244
   5.5758        208
   5.5944        234
   5.6130        243
   5.6316        235
   5.6501        213
   5.6687        231
   5.6873        213
   5.7059        236
   5.7244        221
   5.7430        197
   5.7616        213
   5.7802        210
   5.7988        215
   5.8173        197
   5.8359        240
   5.8545        244
   5.8731        190
   5.8916        205
   5.9102        196
   5.9288        208
   5.9474        188
   5.9659        205
   5.9845        201
   6.0031        211
   6.0217        223
   6.0402        195
   6.0588        195
   6.0774        213
   6.0960        202
   6.1145        205
   6.1331        185
   6.1517        199
   6.1703        180
   6.1888        192
   6.2074        187
   6.2260        194
   6.2446        203
   6.2631        195
   6.2817        177
   6.3003        208
   6.3189        170
   6.3374        175
   6.3560        179
   6.3746        174
   6.3932        200
   6.4117        160
   6.4303        173
   6.4489        171
   6.4675        164
   6.4860        182
   6.5046        182
   6.5232        198
   6.5418        192
   6.5604        193
   6.5789        207
   6.5975        152
   6.6161        179
   6.6347        150
   6.6532        156
   6.6718        190
   6.6904        164
   6.7090        163
   6.7275        158
   6.7461        176
   6.7647        173
   6.7833        153
   6.8018        131
   6.8204        163
   6.8390        186
   6.8576        167
   6.8761        179
   6.8947        152
   6.9133        163
   6.9319        169
   6.9504        160
   6.9690        190
   6.9876        154
   7.0062        182
   7.0247        169
   7.0433        157
   7.0619        165
   7.0805        159
   7.0990        167
   7.1176        169
   7.1362        162
   7.1548        166
   7.1733        174
   7.1919        151
   7.2105        181
   7.2291        175
   7.2476        162
   7.2662        167
   7.2848        152
   7.3034        146
   7.3220        150
   7.3405        152
   7.3591        156
   7.3777        157
   7.3963        178
   7.4148        170
   7.4334        166
   7.4520        163
   7.4706        174
   7.4891        181
   7.5077        186
   7.5263        159
   7.5449        165
   7.5634        189
   7.5820        176
   7.6006        184
   7.6192        147
   7.6377        195
   7.6563        153
   7.6749        172
   7.6935        178
   7.7120        196
   7.7306        200
   7.7492        173
   7.7678        187
   7.7863        177
   7.8049        206
   7.8235        172
   7.8421        186
   7.8606        202
   7.8792        189
   7.8978        197
   7.9164        184
   7.9349        191
   7.9535        185
   7.9721        182
   7.9907        185
   8.0092        199
   8.0278        195
   8.0464        166
   8.0650        187
   8.0835        173
   8.1021        204
   8.1207        207
   8.1393        181
   8.1579        220
   8.1764        173
   8.1950        197
   8.2136        187
   8.2322        222
   8.2507        207
   8.2693        199
   8.2879        192
   8.3065        183
   8.3250        204
   8.3436        209
   8.3622        208
   8.3808        204
   8.3993        199
   8.4179        225
   8.4365        210
   8.4551        207
   8.4736        207
   8.4922        181
   8.5108        208
   8.5294        199
   8.5479        211
   8.5665        210
   8.5851        207
   8.6037        214
   8.6222        186
   8.6408        209
   8.6594        219
   8.6780        212
   8.6965        210
   8.7151        185
   8.7337        201
   8.7523        218
   8.7708        216
   8.7894        184
   8.8080        209
   8.8266        223
   8.8451        196
   8.8637        193
   8.8823        208
   8.9009        204
   8.9195        207
   8.9380        208
   8.9566        199
   8.9752        190
   8.9938        245
   9.0123        214
   9.0309        207
   9.0495        222
   9.0681        207
   9.0866        247
   9.1052        228
   9.1238        259
   9.1424        271
   9.1609        229
   9.1795        215
   9.1981        223
   9.2167        224
   9.2352        236
   9.2538        219
   9.2724        225
   9.2910        221
   9.3095        234
   9.3281        209
   9.3467        212
   9.3653        256
   9.3838        214
   9.4024        248
   9.4210        213
   9.4396        229
   9.4581        234
   9.4767        243
   9.4953        225
   9.5139        230
   9.5324        213
   9.5510        216
   9.5696        227
   9.5882        215
   9.6067        229
   9.6253        214
   9.6439        242
   9.6625        220
   9.6811        221
   9.6996        243
   9.7182        235
   9.7368        244
   9.7554        242
   9.7739        255
   9.7925        228
   9.8111        246
   9.8297        262
   9.8482        266
   9.8668        234
   9.8854        259
   9.9040        269
   9.9225        286
   9.9411        248
   9.9597        256
   9.9783        265
   9.9968        220
  10.0154        234
  10.0340        252
  10.0526        239
  10.0711        229
  10.0897        195
  10.1083        255
  10.1269        251
  10.1454        263
  10.1640        255
  10.1826        234
  10.2012        267
  10.2197        234
  10.2383        229
  10.2569        258
  10.2755        258
  10.2940        229
  10.3126        246
  10.3312        238
  10.3498        245
  10.3683        261
  10.3869        249
  10.4055        247
  10.4241        253
  10.4427        240
  10.4612        243
  10.4798        236
  10.4984        247
  10.5170        238
  10.5355        238
  10.5541        246
  10.5727        255
  10.5913        250
  10.6098        252
  10.6284        254
  10.6470        208
  10.6656        247
  10.6841        236
  10.7027        253
  10.7213        234
  10.7399        234
  10.7584        250
  10.7770        226
  10.7956        222
  10.8142        250
  10.8327        246
  10.8513        231
  10.8699        247
  10.8885        267
  10.9070        211
  10.9256        237
  10.9442        238
  10.9628        248
  10.9813        252
  10.9999        236
  11.0185        245
  11.0371        254
  11.0556        254
  11.0742        241
  11.0928        227
  11.1114        266
  11.1299        205
  11.1485        223
  11.1671        236
  11.1857        247
  11.2043        249
  11.2228        234
  11.2414        215
  11.2600        270
  11.2786        263
  11.2971        244
  11.3157        250
  11.3343        249
  11.3529        214
  11.3714        243
  11.3900        210
  11.4086        202
  11.4272        216
  11.4457        231
  11.4643        262
  11.4829        236
  11.5015        237
  11.5200        242
  11.5386        239
  11.5572        219
  11.5758        245
  11.5943        263
  11.6129        221
  11.6315        271
  11.6501        252
  11.6686        226
  11.6872        243
  11.7058        237
  11.7244        250
  11.7429        200
  11.7615        218
  11.7801        231
  11.7987        224
  11.8172        209
  11.8358        257
  11.8544        248
  11.8730        234
  11.8915        230
  11.9101        239
  11.9287        238
  11.9473        245
  11.9659        219
  11.9844        224
  12.0030        250
  12.0216        222
  12.0402        206
  12.0587        236
  12.0773        236
  12.0959        193
  12.1145        208
  12.1330        243
  12.1516        256
  12.1702        216
  12.1888        215
  12.2073        208
  12.2259        220
  12.2445        254
  12.2631        231
  12.2816        219
  12.3002        208
  12.3188        248
  12.3374        229
  12.3559        245
  12.3745        213
  12.3931        185
  12.4117        226
  12.4302        212
  12.4488        226
  12.4674        233
  12.4860        235
  12.5045        210
  12.5231        242
  12.5417        208
  12.5603        233
  12.5788        192
  12.5974        216
  12.6160        209
  12.6346        213
  12.6531        213
  12.6717        202
  12.6903        239
  12.7089        194
  12.7274        225
  12.7460        210
  12.7646        206
  12.7832        204
  12.8018        199
  12.8203        211
  12.8389        201
  12.8575        188
  12.8761        252
  12.8946        199
  12.9132        235
  12.9318        208
  12.9504        226
  12.9689        213
  12.9875        192
  13.0061        210
  13.0247        212
  13.0432        201
  13.0618        193
  13.0804        206
  13.0990        201
  13.1175        216
  13.1361        215
  13.1547        221
  13.1733        190
  13.1918        201
  13.2104        203
  13.2290        199
  13.2476        194
  13.2661        206
  13.2847        199
  13.3033        209
  13.3219        200
  13.3404        208
  13.3590        195
  13.3776        205
  13.3962        228
  13.4147        232
  13.4333        221
  13.4519        214
  13.4705        192
  13.4890        186
  13.5076        174
  13.5262        189
  13.5448        179
  13.5634        194
  13.5819        213
  13.6005        196
  13.6191        178
  13.6377        216
  13.6562        195
  13.6748        211
  13.6934        202
  13.7120        174
  13.7305        197
  13.7491        201
  13.7677        184
  13.7863        183
  13.8048        185
  13.8234        203
  13.8420        173
  13.8606        188
  13.8791        183
  13.8977        179
  13.9163        203
  13.9349        200
  13.9534        187
  13.9720        191
  13.9906        236
  14.0092        202
  14.0277        209
  14.0463        169
  14.0649        184
  14.0835        192
  14.1020        177
  14.1206        202
  14.1392        195
  14.1578        174
  14.1763        174
  14.1949        166
  14.2135        192
  14.2321        193
  14.2506        180
  14.2692        185
  14.2878        173
  14.3064        185
  14.3250        195
  14.3435        196
  14.3621        187
  14.3807        178
  14.3993        170
  14.4178        181
  14.4364        174
  14.4550        176
  14.4736        166
  14.4921        176
  14.5107        179
  14.5293        162
  14.5479        197
  14.5664        179
  14.5850        168
  14.6036        165
  14.6222        169
  14.6407        171
  14.6593        183
  14.6779        158
  14.6965        186
  14.7150        175
  14.7336        186
  14.7522        184
  14.7708        177
  14.7893        193
  14.8079        172
  14.8265        150
  14.8451        158
  14.8636        164
  14.8822        176
  14.9008        162
  14.9194        170
  14.9379        172
  14.9565        166
  14.9751        182
  14.9937        153
  15.0122        167
  15.0308        171
  15.0494        154
  15.0680        159
  15.0866        170
  15.1051        184
  15.1237        167
  15.1423        174
  15.1609        187
  15.1794        157
  15.1980        186
  15.2166        144
  15.2352        168
  15.2537        194
  15.2723        155
  15.2909        199
  15.3095        183
  15.3280        152
  15.3466        187
  15.3652        166
  15.3838        149
  15.4023        154
  15.4209        158
  15.4395        187
  15.4581        156
  15.4766        172
  15.4952        165
  15.5138        167
  15.5324        166
  15.5509        148
  15.5695        168
  15.5881        166
  15.6067        142
  15.6252        175
  15.6438        180
  15.6624        159
  15.6810        179
  15.6995        167
  15.7181        165
  15.7367        158
  15.7553        173
  15.7738        184
  15.7924        157
  15.8110        187
  15.8296        151
  15.8482        160
  15.8667        182
  15.8853        163
  15.9039        141
  15.9225        176
  15.9410        155
  15.9596        164
  15.9782        155
  15.9968        172
  16.0153        159
  16.0339        169
  16.0525        177
  16.0711        164
  16.0896        171
  16.1082        179
  16.1268        153
  16.1454        182
  16.1639        181
  16.1825        167
  16.2011        139
  16.2197        191
  16.2382        148
  16.2568        171
  16.2754        173
  16.2940        136
  16.3125        188
  16.3311        163
  16.3497        170
  16.3683        162
  16.3868        168
  16.4054        178
  16.4240        163
  16.4426        154
  16.4611        173
  16.4797        161
  16.4983        154
  16.5169        170
  16.5354        166
  16.5540        171
  16.5726        167
  16.5912        181
  16.6097        167
  16.6283        159
  16.6469        164
  16.6655        161
  16.6841        152
  16.7026        143
  16.7212        169
  16.7398        177
  16.7584        158
  16.7769        162
  16.7955        173
  16.8141        167
  16.8327        167
  16.8512        148
  16.8698        158
  16.8884        165
  16.9070        168
  16.9255        167
  16.9441        170
  16.9627        152
  16.9813        171
  16.9998        167
  17.0184        178
  17.0370        182
  17.0556        160
  17.0741        176
  17.0927        168
  17.1113        153
  17.1299        163
  17.1484        177
  17.1670        162
  17.1856        171
  17.2042        176
  17.2227        174
  17.2413        152
  17.2599        171
  17.2785        152
  17.2970        166
  17.3156        141
  17.3342        184
  17.3528        171
  17.3713        173
  17.3899        166
  17.4085        171
  17.4271        179
  17.4457        170
  17.4642        168
  17.4828        165
  17.5014        172
  17.5200        146
  17.5385        167
  17.5571        164
  17.5757        157
  17.5943        176
  17.6128        158
  17.6314        174
  17.6500        172
  17.6686        144
  17.6871        167
  17.7057        165
  17.7243        159
  17.7429        182
  17.7614        148
  17.7800        157
  17.7986        170
  17.8172        174
  17.8357        170
  17.8543        174
  17.8729        159
  17.8915        153
  17.9100        177
  17.9286        153
  17.9472        188
  17.9658        173
  17.9843        156
  18.0029        164
  18.0215        184
  18.0401        164
  18.0586        196
  18.0772        160
  18.0958        163
  18.1144        168
  18.1329        165
  18.1515        164
  18.1701        179
  18.1887        149
  18.2073        153
  18.2258        168
  18.2444        147
  18.2630        189
  18.2816        153
  18.3001        151
  18.3187        165
  18.3373        161
  18.3559        184
  18.3744        176
  18.3930        162
  18.4116        154
  18.4302        183
  18.4487        154
  18.4673        163
  18.4859        163
  18.5045        182
  18.5230        168
  18.5416        155
  18.5602        166
  18.5788        155
  18.5973        173
  18.6159        164
  18.6345        163
  18.6531        155
  18.6716        181
  18.6902        162
  18.7088        171
  18.7274        191
  18.7459        181
  18.7645        154
  18.7831        181
  18.8017        168
  18.8202        161
  18.8388        162
  18.8574        162
  18.8760        182
  18.8945        171
  18.9131        150
  18.9317        174
  18.9503        173
  18.9689        162
  18.9874        159
  19.0060        169
  19.0246        170
  19.0432        168
  19.0617        165
  19.0803        173
  19.0989        216
  19.1175        156
  19.1360        176
  19.1546        153
  19.1732        177
  19.1918        181
  19.2103        174
  19.2289        170
  19.2475        158
  19.2661        171
  19.2846        175
  19.3032        157
  19.3218        179
  19.3404        165
  19.3589        163
  19.3775        175
  19.3961        174
  19.4147        179
  19.4332        182
  19.4518        163
  19.4704        156
  19.4890        187
  19.5075        169
  19.5261        169
  19.5447        176
  19.5633        156
  19.5818        193
  19.6004        182
  19.6190        184
  19.6376        193
  19.6561        178
  19.6747        172
  19.6933        158
  19.7119        183
  19.7305        162
  19.7490        201
  19.7676        165
  19.7862        193
  19.8048        173
  19.8233        170
  19.8419        156
  19.8605        181
  19.8791        180
  19.8976        193
  19.9162        183
  19.9348        200
  19.9534        194
  19.9719        167
  19.9905        186
  20.0091        186
  20.0277        209
  20.0462        207
  20.0648        172
  20.0834        189
  20.1020        172
  20.1205        175
  20.1391        189
  20.1577        195
  20.1763        174
  20.1948        181
  20.2134        172
  20.2320        198
  20.2506        181
  20.2691        178
  20.2877        183
  20.3063        195
  20.3249        168
  20.3434        188
  20.3620        189
  20.3806        175
  20.3992        204
  20.4177        191
  20.4363        201
  20.4549        168
  20.4735        177
  20.4921        205
  20.5106        172
  20.5292        161
  20.5478        169
  20.5664        199
  20.5849        192
  20.6035        179
  20.6221        197
  20.6407        187
  20.6592        185
  20.6778        182
  20.6964        160
  20.7150        202
  20.7335        173
  20.7521        181
  20.7707        184
  20.7893        202
  20.8078        168
  20.8264        192
  20.8450        201
  20.8636        191
  20.8821        201
  20.9007        193
  20.9193        168
  20.9379        207
  20.9564        169
  20.9750        192
  20.9936        195
  21.0122        203
  21.0307        206
  21.0493        201
  21.0679        214
  21.0865        212
  21.1050        207
  21.1236        210
  21.1422        240
  21.1608        226
  21.1793        252
  21.1979        292
  21.2165        334
  21.2351        337
  21.2537        314
  21.2722        339
  21.2908        298
  21.3094        319
  21.3280        374
  21.3465        510
  21.3651        557
  21.3837        419
  21.4023        387
  21.4208        366
  21.4394        275
  21.4580        253
  21.4766        228
  21.4951        197
  21.5137        222
  21.5323        224
  21.5509        185
  21.5694        193
  21.5880        196
  21.6066        221
  21.6252        196
  21.6437        214
  21.6623        214
  21.6809        190
  21.6995        208
  21.7180        214
  21.7366        193
  21.7552        196
  21.7738        193
  21.7923        216
  21.8109        203
  21.8295        184
  21.8481        186
  21.8666        205
  21.8852        220
  21.9038        189
  21.9224        196
  21.9409        207
  21.9595        196
  21.9781        178
  21.9967        168
  22.0152        184
  22.0338        205
  22.0524        176
  22.0710        188
  22.0896        192
  22.1081        175
  22.1267        199
  22.1453        206
  22.1639        202
  22.1824        201
  22.2010        187
  22.2196        195
  22.2382        203
  22.2567        209
  22.2753        195
  22.2939        204
  22.3125        186
  22.3310        207
  22.3496        179
  22.3682        211
  22.3868        188
  22.4053        201
  22.4239        211
  22.4425        215
  22.4611        213
  22.4796        170
  22.4982        200
  22.5168        218
  22.5354        189
  22.5539        226
  22.5725        196
  22.5911        180
  22.6097        205
  22.6282        210
  22.6468        197
  22.6654        243
  22.6840        181
  22.7025        197
  22.7211        196
  22.7397        191
  22.7583        207
  22.7768        201
  22.7954        187
  22.8140        204
  22.8326        187
  22.8512        187
  22.8697        188
  22.8883        226
  22.9069        186
  22.9255        201
  22.9440        208
  22.9626        205
  22.9812        225
  22.9998        194
  23.0183        213
  23.0369        195
  23.0555        213
  23.0741        214
  23.0926        205
  23.1112        198
  23.1298        202
  23.1484        210
  23.1669        190
  23.1855        200
  23.2041        192
  23.2227        207
  23.2412        201
  23.2598        216
  23.2784        222
  23.2970        194
  23.3155        192
  23.3341        218
  23.3527        189
  23.3713        211
  23.3898        226
  23.4084        208
  23.4270        198
  23.4456        190
  23.4641        211
  23.4827        232
  23.5013        192
  23.5199        203
  23.5384        186
  23.5570        216
  23.5756        200
  23.5942        191
  23.6128        201
  23.6313        220
  23.6499        194
  23.6685        191
  23.6871        211
  23.7056        219
  23.7242        192
  23.7428        190
  23.7614        210
  23.7799        221
  23.7985        194
  23.8171        196
  23.8357        197
  23.8542        194
  23.8728        200
  23.8914        208
  23.9100        185
  23.9285        192
  23.9471        200
  23.9657        211
  23.9843        199
  24.0028        188
  24.0214        227
  24.0400        197
  24.0586        187
  24.0771        232
  24.0957        181
  24.1143        233
  24.1329        205
  24.1514        214
  24.1700        195
  24.1886        234
  24.2072        200
  24.2257        206
  24.2443        232
  24.2629        257
  24.2815        264
  24.3000        236
  24.3186        239
  24.3372        231
  24.3558        225
  24.3744        179
  24.3929        196
  24.4115        199
  24.4301        202
  24.4487        186
  24.4672        215
  24.4858        218
  24.5044        243
  24.5230        203
  24.5415        214
  24.5601        202
  24.5787        192
  24.5973        175
  24.6158        191
  24.6344        218
  24.6530        204
  24.6716        207
  24.6901        221
  24.7087        214
  24.7273        205
  24.7459        199
  24.7644        183
  24.7830        190
  24.8016        199
  24.8202        198
  24.8387        197
  24.8573        186
  24.8759        214
  24.8945        199
  24.9130        165
  24.9316        178
  24.9502        206
  24.9688        201
  24.9873        173
  25.0059        207
  25.0245        220
  25.0431        208
  25.0616        222
  25.0802        217
  25.0988        197
  25.1174        221
  25.1360        223
  25.1545        247
  25.1731        211
  25.1917        185
  25.2103        194
  25.2288        189
  25.2474        199
  25.2660        209
  25.2846        179
  25.3031        222
  25.3217        216
  25.3403        196
  25.3589        219
  25.3774        219
  25.3960        229
  25.4146        212
  25.4332        201
  25.4517        212
  25.4703        199
  25.4889        201
  25.5075        186
  25.5260        199
  25.5446        196
  25.5632        207
  25.5818        199
  25.6003        213
  25.6189        216
  25.6375        158
  25.6561        192
  25.6746        210
  25.6932        191
  25.7118        189
  25.7304        228
  25.7489        221
  25.7675        214
  25.7861        204
  25.8047        208
  25.8232        202
  25.8418        202
  25.8604        196
  25.8790        210
  25.8976        193
  25.9161        208
  25.9347        182
  25.9533        187
  25.9719        203
  25.9904        181
  26.0090        183
  26.0276        207
  26.0462        190
  26.0647        217
  26.0833        203
  26.1019        206
  26.1205        208
  26.1390        180
  26.1576        218
  26.1762        179
  26.1948        197
  26.2133        206
  26.2319        212
  26.2505        216
  26.2691        179
  26.2876        186
  26.3062        216
  26.3248        184
  26.3434        196
  26.3619        197
  26.3805        216
  26.3991        188
  26.4177        178
  26.4362        190
  26.4548        190
  26.4734        188
  26.4920        190
  26.5105        214
  26.5291        192
  26.5477        189
  26.5663        189
  26.5848        208
  26.6034        174
  26.6220        202
  26.6406        170
  26.6591        177
  26.6777        214
  26.6963        202
  26.7149        176
  26.7335        201
  26.7520        189
  26.7706        179
  26.7892        202
  26.8078        232
  26.8263        196
  26.8449        189
  26.8635        182
  26.8821        188
  26.9006        206
  26.9192        197
  26.9378        167
  26.9564        182
  26.9749        185
  26.9935        182
  27.0121        204
  27.0307        192
  27.0492        153
  27.0678        191
  27.0864        198
  27.1050        190
  27.1235        176
  27.1421        204
  27.1607        255
  27.1793        225
  27.1978        279
  27.2164        282
  27.2350        228
  27.2536        239
  27.2721        205
  27.2907        219
  27.3093        193
  27.3279        201
  27.3464        186
  27.3650        187
  27.3836        182
  27.4022        192
  27.4207        183
  27.4393        178
  27.4579        203
  27.4765        191
  27.4951        203
  27.5136        195
  27.5322        200
  27.5508        161
  27.5694        183
  27.5879        179
  27.6065        150
  27.6251        189
  27.6437        175
  27.6622        174
  27.6808        181
  27.6994        192
  27.7180        179
  27.7365        174
  27.7551        191
  27.7737        169
  27.7923        176
  27.8108        179
  27.8294        179
  27.8480        180
  27.8666        169
  27.8851        170
  27.9037        172
  27.9223        153
  27.9409        179
  27.9594        190
  27.9780        186
  27.9966        171
  28.0152        172
  28.0337        172
  28.0523        187
  28.0709        181
  28.0895        184
  28.1080        189
  28.1266        171
  28.1452        170
  28.1638        187
  28.1823        158
  28.2009        161
  28.2195        174
  28.2381        157
  28.2567        172
  28.2752        195
  28.2938        184
  28.3124        181
  28.3310        172
  28.3495        163
  28.3681        182
  28.3867        172
  28.4053        171
  28.4238        189
  28.4424        190
  28.4610        165
  28.4796        170
  28.4981        170
  28.5167        167
  28.5353        188
  28.5539        151
  28.5724        156
  28.5910        182
  28.6096        177
  28.6282        183
  28.6467        173
  28.6653        148
  28.6839        157
  28.7025        177
  28.7210        155
  28.7396        167
  28.7582        169
  28.7768        181
  28.7953        170
  28.8139        158
  28.8325        173
  28.8511        171
  28.8696        166
  28.8882        168
  28.9068        179
  28.9254        158
  28.9439        186
  28.9625        138
  28.9811        182
  28.9997        143
  29.0183        170
  29.0368        148
  29.0554        167
  29.0740        161
  29.0926        164
  29.1111        164
  29.1297        154
  29.1483        183
  29.1669        149
  29.1854        160
  29.2040        176
  29.2226        171
  29.2412        154
  29.2597        165
  29.2783        155
  29.2969        141
  29.3155        135
  29.3340        173
  29.3526        172
  29.3712        154
  29.3898        157
  29.4083        168
  29.4269        142
  29.4455        154
  29.4641        180
  29.4826        151
  29.5012        160
  29.5198        167
  29.5384        163
  29.5569        185
  29.5755        159
  29.5941        149
  29.6127        171
  29.6312        157
  29.6498        148
  29.6684        150
  29.6870        167
  29.7055        162
  29.7241        188
  29.7427        153
  29.7613        159
  29.7799        161
  29.7984        143
  29.8170        156
  29.8356        158
  29.8542        163
  29.8727        147
  29.8913        181
  29.9099        148
  29.9285        175
  29.9470        156
  29.9656        157
  29.9842        163
  30.0028        167
  30.0213        151
  30.0399        163
  30.0585        176
  30.0771        152
  30.0956        156
  30.1142        162
  30.1328        139
  30.1514        166
  30.1699        182
  30.1885        168
  30.2071        162
  30.2257        157
  30.2442        160
  30.2628        161
  30.2814        202
  30.3000        178
  30.3185        181
  30.3371        206
  30.3557        251
  30.3743        319
  30.3928        342
  30.4114        297
  30.4300        232
  30.4486        228
  30.4671        253
  30.4857        226
  30.5043        190
  30.5229        125
  30.5415        155
  30.5600        196
  30.5786        162
  30.5972        138
  30.6158        134
  30.6343        149
  30.6529        149
  30.6715        159
  30.6901        136
  30.7086        177
  30.7272        128
  30.7458        154
  30.7644        161
  30.7829        158
  30.8015        159
  30.8201        142
  30.8387        151
  30.8572        164
  30.8758        148
  30.8944        129
  30.9130        136
  30.9315        159
  30.9501        142
  30.9687        155
  30.9873        163
  31.0058        160
  31.0244        133
  31.0430        145
  31.0616        152
  31.0801        142
  31.0987        131
  31.1173        143
  31.1359        134
  31.1544        140
  31.1730        157
  31.1916        141
  31.2102        134
  31.2287        137
  31.2473        153
  31.2659        124
  31.2845        134
  31.3030        118
  31.3216        154
  31.3402        139
  31.3588        143
  31.3774        136
  31.3959        135
  31.4145        136
  31.4331        128
  31.4517        166
  31.4702        129
  31.4888        153
  31.5074        157
  31.5260        140
  31.5445        138
  31.5631        157
  31.5817        148
  31.6003        164
  31.6188        127
  31.6374        161
  31.6560        150
  31.6746        151
  31.6931        110
  31.7117        135
  31.7303        149
  31.7489        130
  31.7674        123
  31.7860        125
  31.8046        122
  31.8232        120
  31.8417        133
  31.8603        145
  31.8789        145
  31.8975        148
  31.9160        119
  31.9346        150
  31.9532        157
  31.9718        141
  31.9903        160
  32.0089        148
  32.0275        133
  32.0461        122
  32.0646        130
  32.0832        144
  32.1018        130
  32.1204        154
  32.1390        144
  32.1575        148
  32.1761        132
  32.1947        114
  32.2133        135
  32.2318        136
  32.2504        124
  32.2690        147
  32.2876        136
  32.3061        122
  32.3247        149
  32.3433        139
  32.3619        120
  32.3804        128
  32.3990        136
  32.4176        158
  32.4362        120
  32.4547        154
  32.4733        163
  32.4919        150
  32.5105        162
  32.5290        143
  32.5476        149
  32.5662        137
  32.5848        143
  32.6033        120
  32.6219        150
  32.6405        132
  32.6591        137
  32.6776        114
  32.6962        141
  32.7148        135
  32.7334        140
  32.7519        140
  32.7705        130
  32.7891        123
  32.8077        128
  32.8262        158
  32.8448        125
  32.8634        121
  32.8820        118
  32.9006        112
  32.9191        124
  32.9377        121
  32.9563        122
  32.9749        121
  32.9934        132
  33.0120        126
  33.0306        111
  33.0492        106
  33.0677        125
  33.0863        122
  33.1049        124
  33.1235        111
  33.1420        119
  33.1606        121
  33.1792        122
  33.1978        120
  33.2163        137
  33.2349        130
  33.2535        113
  33.2721        114
  33.2906        119
  33.3092        127
  33.3278        118
  33.3464        101
  33.3649        116
  33.3835        117
  33.4021        121
  33.4207        139
  33.4392        142
  33.4578        126
  33.4764        134
  33.4950        123
  33.5135        117
  33.5321        123
  33.5507        127
  33.5693        129
  33.5878        120
  33.6064        123
  33.6250        118
  33.6436        125
  33.6622        110
  33.6807        126
  33.6993        120
  33.7179        101
  33.7365        130
  33.7550        104
  33.7736        106
  33.7922        112
  33.8108        143
  33.8293        128
  33.8479        114
  33.8665        116
  33.8851        104
  33.9036        110
  33.9222        118
  33.9408        116
  33.9594         98
  33.9779        129
  33.9965        114
  34.0151        120
  34.0337        104
  34.0522        111
  34.0708        115
  34.0894        104
  34.1080        125
  34.1265        139
  34.1451        104
  34.1637        129
  34.1823        113
  34.2008        120
  34.2194        132
  34.2380        117
  34.2566        118
  34.2751        117
  34.2937        106
  34.3123        113
  34.3309        118
  34.3494        103
  34.3680        115
  34.3866        128
  34.4052        127
  34.4238        114
  34.4423        125
  34.4609        126
  34.4795        102
  34.4981        126
  34.5166        111
  34.5352        133
  34.5538        100
  34.5724        115
  34.5909        135
  34.6095        126
  34.6281        115
  34.6467        145
  34.6652        133
  34.6838        119
  34.7024        136
  34.7210        151
  34.7395        173
  34.7581        161
  34.7767        167
  34.7953        157
  34.8138        162
  34.8324        154
  34.8510        158
  34.8696        128
  34.8881        109
  34.9067        116
  34.9253        110
  34.9439        108
  34.9624        122
  34.9810        108
  34.9996        116
  35.0182        123
  35.0367        122
  35.0553        114
  35.0739        131
  35.0925         95
  35.1110        107
  35.1296        113
  35.1482        110
  35.1668        116
  35.1854        114
  35.2039        123
  35.2225         96
  35.2411         99
  35.2597        111
  35.2782         93
  35.2968         99
  35.3154        103
  35.3340         91
  35.3525        105
  35.3711         94
  35.3897         98
  35.4083        105
  35.4268         99
  35.4454        117
  35.4640        104
  35.4826         99
  35.5011         90
  35.5197        112
  35.5383        123
  35.5569        111
  35.5754         93
  35.5940        120
  35.6126        120
  35.6312         92
  35.6497        103
  35.6683         99
  35.6869        117
  35.7055        101
  35.7240         96
  35.7426        107
  35.7612        104
  35.7798         97
  35.7983        105
  35.8169        108
  35.8355        115
  35.8541        113
  35.8726        108
  35.8912         94
  35.9098        107
  35.9284        102
  35.9469         93
  35.9655         90
  35.9841        103
  36.0027         87
  36.0213         90
  36.0398        109
  36.0584         97
  36.0770         92
  36.0956        110
  36.1141         99
  36.1327        102
  36.1513         95
  36.1699        111
  36.1884        106
  36.2070         93
  36.2256         94
  36.2442         89
  36.2627         96
  36.2813        107
  36.2999         93
  36.3185         97
  36.3370         98
  36.3556         86
  36.3742         99
  36.3928        114
  36.4113        109
  36.4299         90
  36.4485         89
  36.4671        105
  36.4856         90
  36.5042         90
  36.5228         77
  36.5414         86
  36.5599        109
  36.5785         98
  36.5971         91
  36.6157        105
  36.6342         89
  36.6528         86
  36.6714         90
  36.6900        100
  36.7085         98
  36.7271        120
  36.7457         93
  36.7643         89
  36.7829         88
  36.8014         85
  36.8200         90
  36.8386         83
  36.8572         85
  36.8757         76
  36.8943         99
  36.9129         85
  36.9315        102
  36.9500         89
  36.9686         90
  36.9872        105
  37.0058         95
  37.0243         96
  37.0429         80
  37.0615        102
  37.0801        113
  37.0986        102
  37.1172        112
  37.1358         99
  37.1544        104
  37.1729        102
  37.1915         97
  37.2101         97
  37.2287         90
  37.2472         94
  37.2658         89
  37.2844         98
  37.3030         98
  37.3215        105
  37.3401        116
  37.3587         94
  37.3773        122
  37.3958        101
  37.4144        133
  37.4330        174
  37.4516        170
  37.4701        127
  37.4887         99
  37.5073        122
  37.5259        140
  37.5445        117
  37.5630        127
  37.5816        103
  37.6002         90
  37.6188         83
  37.6373         98
  37.6559         78
  37.6745        100
  37.6931         90
  37.7116         89
  37.7302         98
  37.7488         88
  37.7674         78
  37.7859        101
  37.8045         79
  37.8231        104
  37.8417        102
  37.8602         84
  37.8788        101
  37.8974        108
  37.9160         80
  37.9345        102
  37.9531         80
  37.9717         87
  37.9903         87
  38.0088         74
  38.0274        105
  38.0460         72
  38.0646         86
  38.0831         78
  38.1017         74
  38.1203         86
  38.1389         81
  38.1574         90
  38.1760        101
  38.1946         77
  38.2132         99
  38.2317         96
  38.2503         78
  38.2689         71
  38.2875         77
  38.3061        109
  38.3246        104
  38.3432         94
  38.3618         88
  38.3804         81
  38.3989        100
  38.4175         90
  38.4361         65
  38.4547         72
  38.4732         85
  38.4918         63
  38.5104         80
  38.5290         71
  38.5475         89
  38.5661        104
  38.5847         75
  38.6033        101
  38.6218         94
  38.6404         80
  38.6590         97
  38.6776         81
  38.6961         77
  38.7147         97
  38.7333         81
  38.7519         85
  38.7704         82
  38.7890         81
  38.8076         89
  38.8262         86
  38.8447         91
  38.8633         75
  38.8819         90
  38.9005         82
  38.9190         76
  38.9376        114
  38.9562        107
  38.9748         85
  38.9933         75
  39.0119         90
  39.0305        100
  39.0491         88
  39.0677         82
  39.0862         83
  39.1048         72
  39.1234         84
  39.1420        100
  39.1605         96
  39.1791         96
  39.1977         74
  39.2163         86
  39.2348         71
  39.2534         95
  39.2720         66
  39.2906         83
  39.3091         82
  39.3277         87
  39.3463         75
  39.3649         79
  39.3834         95
  39.4020         76
  39.4206         90
  39.4392         88
  39.4577         74
  39.4763         86
  39.4949         74
  39.5135         75
  39.5320         88
  39.5506         74
  39.5692         79
  39.5878         90
  39.6063         71
  39.6249         74
  39.6435         88
  39.6621         85
  39.6806         75
  39.6992         75
  39.7178         82
  39.7364         87
  39.7549         90
  39.7735         79
  39.7921         70
  39.8107         72
  39.8293         93
  39.8478         69
  39.8664         81
  39.8850         72
  39.9036         87
  39.9221         72
  39.9407         66
  39.9593         84
  39.9779         77
  39.9964         67
  40.0150         88
  40.0336         70
  40.0522         78
  40.0707         68
  40.0893        100
  40.1079         84
  40.1265         81
  40.1450         63
  40.1636         67
  40.1822         87
  40.2008         79
  40.2193         90
  40.2379         73
  40.2565         80
  40.2751         72
  40.2936         86
  40.3122         99
  40.3308         83
  40.3494         74
  40.3679         84
  40.3865         66
  40.4051         83
  40.4237         77
  40.4422         82
  40.4608         87
  40.4794         82
  40.4980         72
  40.5165         75
  40.5351         82
  40.5537         86
  40.5723         72
  40.5908         84
  40.6094         73
  40.6280         88
  40.6466         87
  40.6652         61
  40.6837         72
  40.7023         74
  40.7209         93
  40.7395         68
  40.7580         68
  40.7766         95
  40.7952         76
  40.8138         96
  40.8323         68
  40.8509         73
  40.8695         84
  40.8881         72
  40.9066         97
  40.9252         88
  40.9438         77
  40.9624         87
  40.9809         85
  40.9995         83
  41.0181         94
  41.0367         82
  41.0552         85
  41.0738         82
  41.0924         64
  41.1110         71
  41.1295         77
  41.1481         77
  41.1667         74
  41.1853         87
  41.2038         77
  41.2224         79
  41.2410         85
  41.2596         96
  41.2781         81
  41.2967         67
  41.3153         73
  41.3339         77
  41.3524         73
  41.3710         63
  41.3896         82
  41.4082         71
  41.4268         77
  41.4453         89
  41.4639         85
  41.4825         87
  41.5011         83
  41.5196         69
  41.5382         83
  41.5568         73
  41.5754         61
  41.5939         77
  41.6125         89
  41.6311         64
  41.6497         76
  41.6682         59
  41.6868         82
  41.7054         69
  41.7240         80
  41.7425         67
  41.7611         72
  41.7797         84
  41.7983         71
  41.8168         89
  41.8354         73
  41.8540         77
  41.8726         88
  41.8911         86
  41.9097         84
  41.9283         88
  41.9469         62
  41.9654         81
  41.9840         91
  42.0026         70
  42.0212         83
  42.0397         83
  42.0583         74
  42.0769         79
  42.0955         83
  42.1140         83
  42.1326         72
  42.1512         66
  42.1698         75
  42.1884         80
  42.2069         76
  42.2255         76
  42.2441         87
  42.2627         82
  42.2812         74
  42.2998         76
  42.3184         74
  42.3370         91
  42.3555         79
  42.3741         67
  42.3927         65
  42.4113         68
  42.4298         72
  42.4484         66
  42.4670         72
  42.4856         83
  42.5041         79
  42.5227         82
  42.5413         99
  42.5599         75
  42.5784         72
  42.5970         81
  42.6156         79
  42.6342         62
  42.6527         77
  42.6713         79
  42.6899         82
  42.7085         57
  42.7270         70
  42.7456         60
  42.7642         64
  42.7828         71
  42.8013         76
  42.8199         66
  42.8385         59
  42.8571         63
  42.8756         71
  42.8942         75
  42.9128         94
  42.9314         74
  42.9500         82
  42.9685         82
  42.9871         75
  43.0057         52
  43.0243         80
  43.0428         60
  43.0614         80
  43.0800         74
  43.0986         73
  43.1171         76
  43.1357         82
  43.1543         77
  43.1729         73
  43.1914         81
  43.2100         82
  43.2286         97
  43.2472        104
  43.2657         88
  43.2843        107
  43.3029         84
  43.3215         96
  43.3400        102
  43.3586         74
  43.3772         76
  43.3958         84
  43.4143         78
  43.4329         68
  43.4515         94
  43.4701        118
  43.4886        107
  43.5072        125
  43.5258        121
  43.5444         77
  43.5629        105
  43.5815         95
  43.6001         98
  43.6187        104
  43.6372         96
  43.6558         97
  43.6744         95
  43.6930         86
  43.7116         67
  43.7301         68
  43.7487         77
  43.7673         76
  43.7859         81
  43.8044         75
  43.8230         79
  43.8416         88
  43.8602         67
  43.8787         72
  43.8973         82
  43.9159         63
  43.9345         92
  43.9530         76
  43.9716         70
  43.9902         68
  44.0088         67
  44.0273         81
  44.0459         71
  44.0645         70
  44.0831         86
  44.1016         69
  44.1202         76
  44.1388         74
  44.1574         68
  44.1759         68
  44.1945         85
  44.2131         63
  44.2317         75
  44.2502         80
  44.2688         80
  44.2874         77
  44.3060         66
  44.3245         67
  44.3431         75
  44.3617         90
  44.3803         67
  44.3988         82
  44.4174         70
  44.4360         85
  44.4546         73
  44.4732         65
  44.4917         80
  44.5103         76
  44.5289         66
  44.5475         77
  44.5660         82
  44.5846         75
  44.6032         79
  44.6218         82
  44.6403         70
  44.6589         84
  44.6775         83
  44.6961         95
  44.7146        100
  44.7332         77
  44.7518         80
  44.7704         79
  44.7889         74
  44.8075         75
  44.8261         69
  44.8447         70
  44.8632         72
  44.8818         52
  44.9004         66
  44.9190         68
  44.9375         71
  44.9561         71
  44.9747         66
  44.9933         64
  45.0118         75
  45.0304         86
  45.0490         65
  45.0676         77
  45.0861         60
  45.1047         57
  45.1233         76
  45.1419         69
  45.1604         88
  45.1790         56
  45.1976         58
  45.2162         53
  45.2347         60
  45.2533         69
  45.2719         63
  45.2905         67
  45.3091         77
  45.3276         66
  45.3462         76
  45.3648         67
  45.3834         86
  45.4019         74
  45.4205         59
  45.4391         62
  45.4577         91
  45.4762         75
  45.4948         59
  45.5134         60
  45.5320         58
  45.5505         72
  45.5691         68
  45.5877         54
  45.6063         81
  45.6248         66
  45.6434         77
  45.6620         51
  45.6806         61
  45.6991         58
  45.7177         71
  45.7363         66
  45.7549         57
  45.7734         76
  45.7920         67
  45.8106         71
  45.8292         68
  45.8477         63
  45.8663         72
  45.8849         81
  45.9035         68
  45.9220         70
  45.9406         67
  45.9592         58
  45.9778         53
  45.9963         67
  46.0149         79
  46.0335         86
  46.0521         76
  46.0707         75
  46.0892         60
  46.1078         76
  46.1264         72
  46.1450         72
  46.1635         63
  46.1821         65
  46.2007         59
  46.2193         66
  46.2378         65
  46.2564         63
  46.2750         67
  46.2936         70
  46.3121         63
  46.3307         65
  46.3493         73
  46.3679         67
  46.3864         55
  46.4050         64
  46.4236         82
  46.4422         69
  46.4607         61
  46.4793         72
  46.4979         68
  46.5165         55
  46.5350         73
  46.5536         77
  46.5722         68
  46.5908         64
  46.6093         55
  46.6279         78
  46.6465         59
  46.6651         66
  46.6836         72
  46.7022         55
  46.7208         77
  46.7394         76
  46.7579         53
  46.7765         62
  46.7951         65
  46.8137         71
  46.8323         58
  46.8508         58
  46.8694         55
  46.8880         66
  46.9066         53
  46.9251         67
  46.9437         67
  46.9623         62
  46.9809         76
  46.9994         82
  47.0180         61
  47.0366         77
  47.0552         54
  47.0737         57
  47.0923         52
  47.1109         54
  47.1295         65
  47.1480         67
  47.1666         72
  47.1852         60
  47.2038         78
  47.2223         63
  47.2409         61
  47.2595         60
  47.2781         75
  47.2966         75
  47.3152         64
  47.3338         66
  47.3524         64
  47.3709         76
  47.3895         71
  47.4081         81
  47.4267         69
  47.4452         57
  47.4638         59
  47.4824         54
  47.5010         68
  47.5195         55
  47.5381         69
  47.5567         62
  47.5753         57
  47.5939         66
  47.6124         55
  47.6310         73
  47.6496         48
  47.6682         65
  47.6867         68
  47.7053         52
  47.7239         79
  47.7425         59
  47.7610         48
  47.7796         68
  47.7982         77
  47.8168         64
  47.8353         64
  47.8539         61
  47.8725         52
  47.8911         67
  47.9096         64
  47.9282         64
  47.9468         61
  47.9654         77
  47.9839         56
  48.0025         57
  48.0211         57
  48.0397         63
  48.0582         77
  48.0768         54
  48.0954         67
  48.1140         60
  48.1325         64
  48.1511         83
  48.1697         74
  48.1883         60
  48.2068         66
  48.2254         75
  48.2440         74
  48.2626         54
  48.2811         74
  48.2997         69
  48.3183         55
  48.3369         62
  48.3555         64
  48.3740         72
  48.3926         69
  48.4112         70
  48.4298         63
  48.4483         54
  48.4669         61
  48.4855         66
  48.5041         61
  48.5226         67
  48.5412         66
  48.5598         67
  48.5784         81
  48.5969         56
  48.6155         78
  48.6341         64
  48.6527         62
  48.6712         53
  48.6898         62
  48.7084         61
  48.7270         67
  48.7455         77
  48.7641         82
  48.7827         76
  48.8013         59
  48.8198         75
  48.8384         61
  48.8570         65
  48.8756         65
  48.8941         78
  48.9127         67
  48.9313        125
  48.9499        108
  48.9684        109
  48.9870         91
  49.0056         90
  49.0242         82
  49.0427         84
  49.0613         90
  49.0799         77
  49.0985         93
  49.1171         79
  49.1356         94
  49.1542         69
  49.1728         83
  49.1914         74
  49.2099         71
  49.2285         77
  49.2471         60
  49.2657         69
  49.2842         68
  49.3028         71
  49.3214         72
  49.3400         74
  49.3585         52
  49.3771         70
  49.3957         57
  49.4143         64
  49.4328         68
  49.4514         49
  49.4700         61
  49.4886         66
  49.5071         70
  49.5257         66
  49.5443         45
  49.5629         62
  49.5814         50
  49.6000         64
  49.6186         66
  49.6372         69
  49.6557         39
  49.6743         60
  49.6929         61
  49.7115         53
  49.7300         68
  49.7486         52
  49.7672         55
  49.7858         54
  49.8043         58
  49.8229         61
  49.8415         72
  49.8601         62
  49.8786         79
  49.8972         72
  49.9158         57
  49.9344         59
  49.9530         61
  49.9715         60
  49.9901         63
  50.0087         54
  50.0273         59
  50.0458         61
  50.0644         66
  50.0830         66
  50.1016         45
  50.1201         59
  50.1387         80
  50.1573         62
  50.1759         57
  50.1944         67
  50.2130         88
  50.2316         87
  50.2502         59
  50.2687         66
  50.2873         47
  50.3059         62
  50.3245         58
  50.3430         66
  50.3616         70
  50.3802         73
  50.3988         63
  50.4173         62
  50.4359         71
  50.4545         51
  50.4731         55
  50.4916         60
  50.5102         70
  50.5288         52
  50.5474         49
  50.5659         69
  50.5845         61
  50.6031         58
  50.6217         48
  50.6402         52
  50.6588         63
  50.6774         48
  50.6960         57
  50.7146         50
  50.7331         58
  50.7517         67
  50.7703         49
  50.7889         69
  50.8074         64
  50.8260         75
  50.8446         55
  50.8632         54
  50.8817         75
  50.9003         53
  50.9189         49
  50.9375         68
  50.9560         56
  50.9746         55
  50.9932         51
  51.0118         62
  51.0303         57
  51.0489         55
  51.0675         64
  51.0861         46
  51.1046         50
  51.1232         65
  51.1418         64
  51.1604         55
  51.1789         63
  51.1975         62
  51.2161         73
  51.2347         63
  51.2532         73
  51.2718         68
  51.2904         84
  51.3090         72
  51.3275         69
  51.3461         58
  51.3647         58
  51.3833         72
  51.4018         73
  51.4204         54
  51.4390         75
  51.4576         76
  51.4762         69
  51.4947         64
  51.5133         61
  51.5319         71
  51.5505         75
  51.5690         85
  51.5876         77
  51.6062         75
  51.6248         60
  51.6433         58
  51.6619         64
  51.6805         66
  51.6991         78
  51.7176         73
  51.7362         62
  51.7548         62
  51.7734         68
  51.7919         66
  51.8105         75
  51.8291         76
  51.8477         74
  51.8662         59
  51.8848         80
  51.9034         76
  51.9220         63
  51.9405         65
  51.9591         64
  51.9777         70
  51.9963         60
  52.0148         55
  52.0334         68
  52.0520         64
  52.0706         60
  52.0891         67
  52.1077         70
  52.1263         43
  52.1449         63
  52.1634         80
  52.1820         57
  52.2006         58
  52.2192         62
  52.2378         60
  52.2563         52
  52.2749         64
  52.2935         53
  52.3121         60
  52.3306         52
  52.3492         74
  52.3678         65
  52.3864         57
  52.4049         62
  52.4235         50
  52.4421         71
  52.4607         74
  52.4792         56
  52.4978         57
  52.5164         70
  52.5350         68
  52.5535         64
  52.5721         58
  52.5907         56
  52.6093         61
  52.6278         56
  52.6464         53
  52.6650         72
  52.6836         63
  52.7021         71
  52.7207         69
  52.7393         54
  52.7579         51
  52.7764         65
  52.7950         63
  52.8136         57
  52.8322         76
  52.8507         48
  52.8693         73
  52.8879         64
  52.9065         57
  52.9250         70
  52.9436         61
  52.9622         67
  52.9808         62
  52.9994         77
  53.0179         57
  53.0365         66
  53.0551         62
  53.0737         67
  53.0922         59
  53.1108         50
  53.1294         53
  53.1480         70
  53.1665         70
  53.1851         69
  53.2037         61
  53.2223         78
  53.2408         67
  53.2594         52
  53.2780         60
  53.2966         59
  53.3151         75
  53.3337         70
  53.3523         64
  53.3709         56
  53.3894         53
  53.4080         54
  53.4266         63
  53.4452         49
  53.4637         59
  53.4823         72
  53.5009         53
  53.5195         57
  53.5380         53
  53.5566         57
  53.5752         56
  53.5938         54
  53.6123         70
  53.6309         61
  53.6495         54
  53.6681         54
  53.6866         54
  53.7052         52
  53.7238         67
  53.7424         53
  53.7610         53
  53.7795         54
  53.7981         57
  53.8167         59
  53.8353         64
  53.8538         52
  53.8724         56
  53.8910         59
  53.9096         58
  53.9281         47
  53.9467         63
  53.9653         69
  53.9839         87
  54.0024         92
  54.0210         86
  54.0396         67
  54.0582         68
  54.0767         74
  54.0953         62
  54.1139         80
  54.1325         84
  54.1510         81
  54.1696         65
  54.1882         56
  54.2068         59
  54.2253         79
  54.2439         60
  54.2625         61
  54.2811         60
  54.2996         62
  54.3182         62
  54.3368         62
  54.3554         76
  54.3739         59
  54.3925         53
  54.4111         53
  54.4297         50
  54.4482         80
  54.4668         54
  54.4854         62
  54.5040         50
  54.5225         58
  54.5411         54
  54.5597         41
  54.5783         73
  54.5969         46
  54.6154         58
  54.6340         60
  54.6526         47
  54.6712         63
  54.6897         51
  54.7083         51
  54.7269         60
  54.7455         51
  54.7640         61
  54.7826         65
  54.8012         49
  54.8198         55
  54.8383         46
  54.8569         53
  54.8755         46
  54.8941         63
  54.9126         63
  54.9312         56
  54.9498         56
  54.9684         66
  54.9869         60
  55.0055         66
  55.0241         55
  55.0427         54
  55.0612         49
  55.0798         66
  55.0984         56
  55.1170         51
  55.1355         43
  55.1541         59
  55.1727         55
  55.1913         53
  55.2098         69
  55.2284         60
  55.2470         66
  55.2656         56
  55.2841         63
  55.3027         50
  55.3213         53
  55.3399         60
  55.3585         60
  55.3770         56
  55.3956         57
  55.4142         54
  55.4328         54
  55.4513         64
  55.4699         53
  55.4885         73
  55.5071         57
  55.5256         53
  55.5442         68
  55.5628         45
  55.5814         55
  55.5999         55
  55.6185         51
  55.6371         58
  55.6557         63
  55.6742         52
  55.6928         48
  55.7114         60
  55.7300         67
  55.7485         63
  55.7671         62
  55.7857         51
  55.8043         60
  55.8228         65
  55.8414         56
  55.8600         67
  55.8786         66
  55.8971         64
  55.9157         62
  55.9343         56
  55.9529         51
  55.9714         66
  55.9900         61
  56.0086         58
  56.0272         68
  56.0457         65
  56.0643         56
  56.0829         65
  56.1015         59
  56.1201         50
  56.1386         59
  56.1572         67
  56.1758         46
  56.1944         73
  56.2129         74
  56.2315         77
  56.2501         70
  56.2687         76
  56.2872         54
  56.3058         72
  56.3244         75
  56.3430         72
  56.3615         63
  56.3801         73
  56.3987         56
  56.4173         64
  56.4358         61
  56.4544         57
  56.4730         65
  56.4916         62
  56.5101         57
  56.5287         55
  56.5473         56
  56.5659         49
  56.5844         41
  56.6030         67
  56.6216         53
  56.6402         46
  56.6587         77
  56.6773         49
  56.6959         58
  56.7145         51
  56.7330         55
  56.7516         52
  56.7702         57
  56.7888         70
  56.8073         58
  56.8259         65
  56.8445         47
  56.8631         57
  56.8817         59
  56.9002         58
  56.9188         67
  56.9374         59
  56.9560         58
  56.9745         71
  56.9931         63
  57.0117         52
  57.0303         49
  57.0488         58
  57.0674         54
  57.0860         58
  57.1046         62
  57.1231         54
  57.1417         43
  57.1603         59
  57.1789         50
  57.1974         50
  57.2160         72
  57.2346         69
  57.2532         54
  57.2717         50
  57.2903         56
  57.3089         62
  57.3275         49
  57.3460         68
  57.3646         59
  57.3832         55
  57.4018         53
  57.4203         55
  57.4389         63
  57.4575         76
  57.4761         70
  57.4946         48
  57.5132         72
  57.5318         53
  57.5504         58
  57.5689         63
  57.5875         51
  57.6061         61
  57.6247         54
  57.6433         49
  57.6618         57
  57.6804         73
  57.6990         67
  57.7176         56
  57.7361         61
  57.7547         48
  57.7733         63
  57.7919         62
  57.8104         63
  57.8290         51
  57.8476         55
  57.8662         60
  57.8847         66
  57.9033         71
  57.9219         62
  57.9405         53
  57.9590         57
  57.9776         55
  57.9962         47
  58.0148         65
  58.0333         62
  58.0519         57
  58.0705         59
  58.0891         62
  58.1076         51
  58.1262         55
  58.1448         73
  58.1634         50
  58.1819         49
  58.2005         62
  58.2191         61
  58.2377         50
  58.2562         52
  58.2748         47
  58.2934         55
  58.3120         49
  58.3305         57
  58.3491         52
  58.3677         48
  58.3863         61
  58.4049         64
  58.4234         47
  58.4420         64
  58.4606         56
  58.4792         70
  58.4977         46
  58.5163         52
  58.5349         56
  58.5535         52
  58.5720         54
  58.5906         58
  58.6092         54
  58.6278         59
  58.6463         53
  58.6649         58
  58.6835         61
  58.7021         57
  58.7206         58
  58.7392         48
  58.7578         49
  58.7764         60
  58.7949         62
  58.8135         59
  58.8321         51
  58.8507         61
  58.8692         54
  58.8878         42
  58.9064         46
  58.9250         50
  58.9435         56
  58.9621         52
  58.9807         56
  58.9993         66
  59.0178         55
  59.0364         58
  59.0550         50
  59.0736         48
  59.0921         45
  59.1107         52
  59.1293         58
  59.1479         56
  59.1664         53
  59.1850         56
  59.2036         58
  59.2222         65
  59.2408         53
  59.2593         59
  59.2779         65
  59.2965         54
  59.3151         52
  59.3336         50
  59.3522         58
  59.3708         51
  59.3894         39
  59.4079         60
  59.4265         40
  59.4451         52
  59.4637         52
  59.4822         62
  59.5008         56
  59.5194         72
  59.5380         58
  59.5565         56
  59.5751         49
  59.5937         58
  59.6123         52
  59.6308         41
  59.6494         61
  59.6680         39
  59.6866         50
  59.7051         68
  59.7237         62
  59.7423         59
  59.7609         52
  59.7794         43
  59.7980         55
  59.8166         52
  59.8352         42
  59.8537         53
  59.8723         55
  59.8909         60
  59.9095         51
  59.9280         43
  59.9466         53
  59.9652         56
  59.9838         54
  60.0024         58
