;,2THETA,
5.0000,112
5.0186,96
5.0372,101
5.0557,106
5.0743,111
5.0929,93
5.1115,95
5.1300,102
5.1486,102
5.1672,101
5.1858,77
5.2043,83
5.2229,94
5.2415,87
5.2601,96
5.2786,84
5.2972,81
5.3158,106
5.3344,83
5.3529,88
5.3715,107
5.3901,85
5.4087,98
5.4272,84
5.4458,101
5.4644,82
5.4830,76
5.5015,81
5.5201,88
5.5387,89
5.5573,81
5.5758,92
5.5944,83
5.6130,66
5.6316,74
5.6501,77
5.6687,104
5.6873,80
5.7059,72
5.7244,74
5.7430,74
5.7616,77
5.7802,96
5.7988,62
5.8173,70
5.8359,75
5.8545,78
5.8731,82
5.8916,79
5.9102,57
5.9288,76
5.9474,66
5.9659,74
5.9845,71
6.0031,83
6.0217,66
6.0402,77
6.0588,70
6.0774,61
6.0960,78
6.1145,76
6.1331,61
6.1517,64
6.1703,85
6.1888,75
6.2074,74
6.2260,67
6.2446,65
6.2631,59
6.2817,63
6.3003,71
6.3189,66
6.3374,74
6.3560,80
6.3746,70
6.3932,76
6.4117,62
6.4303,61
6.4489,66
6.4675,65
6.4860,54
6.5046,68
6.5232,53
6.5418,63
6.5604,71
6.5789,62
6.5975,72
6.6161,70
6.6347,69
6.6532,63
6.6718,60
6.6904,68
6.7090,59
6.7275,73
6.7461,71
6.7647,54
6.7833,70
6.8018,58
6.8204,71
6.8390,50
6.8576,57
6.8761,59
6.8947,65
6.9133,54
6.9319,73
6.9504,64
6.9690,71
6.9876,50
7.0062,60
7.0247,72
7.0433,61
7.0619,67
7.0805,57
7.0990,42
7.1176,56
7.1362,54
7.1548,55
7.1733,64
7.1919,56
7.2105,61
7.2291,57
7.2476,55
7.2662,57
7.2848,59
7.3034,70
7.3220,68
7.3405,71
7.3591,46
7.3777,66
7.3963,57
7.4148,52
7.4334,62
7.4520,66
7.4706,56
7.4891,65
7.5077,59
7.5263,77
7.5449,60
7.5634,50
7.5820,61
7.6006,66
7.6192,61
7.6377,56
7.6563,56
7.6749,77
7.6935,72
7.7120,72
7.7306,69
7.7492,60
7.7678,61
7.7863,71
7.8049,78
7.8235,72
7.8421,53
7.8606,62
7.8792,76
7.8978,68
7.9164,80
7.9349,64
7.9535,94
7.9721,63
7.9907,77
8.0092,75
8.0278,72
8.0464,65
8.0650,64
8.0835,65
8.1021,68
8.1207,72
8.1393,49
8.1579,60
8.1764,82
8.1950,87
8.2136,77
8.2322,59
8.2507,70
8.2693,71
8.2879,64
8.3065,70
8.3250,64
8.3436,83
8.3622,68
8.3808,79
8.3993,57
8.4179,68
8.4365,62
8.4551,75
8.4736,75
8.4922,76
8.5108,58
8.5294,68
8.5479,66
8.5665,81
8.5851,74
8.6037,86
8.6222,76
8.6408,82
8.6594,55
8.6780,80
8.6965,77
8.7151,78
8.7337,76
8.7523,87
8.7708,68
8.7894,74
8.8080,66
8.8266,76
8.8451,89
8.8637,65
8.8823,69
8.9009,79
8.9195,79
8.9380,85
8.9566,62
8.9752,75
8.9938,80
9.0123,83
9.0309,98
9.0495,76
9.0681,72
9.0866,71
9.1052,94
9.1238,78
9.1424,80
9.1609,84
9.1795,84
9.1981,75
9.2167,68
9.2352,88
9.2538,75
9.2724,97
9.2910,73
9.3095,67
9.3281,82
9.3467,85
9.3653,78
9.3838,83
9.4024,87
9.4210,85
9.4396,83
9.4581,75
9.4767,82
9.4953,84
9.5139,78
9.5324,95
9.5510,90
9.5696,89
9.5882,84
9.6067,84
9.6253,76
9.6439,68
9.6625,77
9.6811,59
9.6996,77
9.7182,84
9.7368,82
9.7554,83
9.7739,96
9.7925,90
9.8111,77
9.8297,77
9.8482,99
9.8668,99
9.8854,102
9.9040,106
9.9225,81
9.9411,75
9.9597,75
9.9783,92
9.9968,87
10.0154,91
10.0340,97
10.0526,84
10.0711,90
10.0897,110
10.1083,74
10.1269,102
10.1454,74
10.1640,98
10.1826,91
10.2012,90
10.2197,91
10.2383,96
10.2569,68
10.2755,88
10.2940,83
10.3126,94
10.3312,72
10.3498,84
10.3683,83
10.3869,77
10.4055,81
10.4241,101
10.4427,92
10.4612,93
10.4798,87
10.4984,89
10.5170,91
10.5355,97
10.5541,94
10.5727,90
10.5913,87
10.6098,93
10.6284,101
10.6470,83
10.6656,98
10.6841,97
10.7027,94
10.7213,75
10.7399,93
10.7584,87
10.7770,89
10.7956,93
10.8142,91
10.8327,71
10.8513,75
10.8699,76
10.8885,73
10.9070,89
10.9256,82
10.9442,84
10.9628,94
10.9813,82
10.9999,87
11.0185,88
11.0371,83
11.0556,98
11.0742,99
11.0928,109
11.1114,97
11.1299,81
11.1485,74
11.1671,89
11.1857,104
11.2043,89
11.2228,88
11.2414,87
11.2600,81
11.2786,75
11.2971,94
11.3157,78
11.3343,95
11.3529,89
11.3714,98
11.3900,90
11.4086,74
11.4272,79
11.4457,75
11.4643,78
11.4829,87
11.5015,95
11.5200,79
11.5386,87
11.5572,92
11.5758,75
11.5943,88
11.6129,72
11.6315,73
11.6501,97
11.6686,86
11.6872,77
11.7058,85
11.7244,88
11.7429,102
11.7615,95
11.7801,78
11.7987,104
11.8172,84
11.8358,80
11.8544,83
11.8730,104
11.8915,78
11.9101,91
11.9287,90
11.9473,88
11.9659,83
11.9844,88
12.0030,83
12.0216,64
12.0402,90
12.0587,79
12.0773,81
12.0959,84
12.1145,73
12.1330,80
12.1516,84
12.1702,79
12.1888,69
12.2073,86
12.2259,74
12.2445,79
12.2631,70
12.2816,86
12.3002,63
12.3188,78
12.3374,73
12.3559,81
12.3745,82
12.3931,84
12.4117,54
12.4302,74
12.4488,91
12.4674,89
12.4860,104
12.5045,95
12.5231,83
12.5417,78
12.5603,81
12.5788,72
12.5974,58
12.6160,95
12.6346,87
12.6531,90
12.6717,92
12.6903,77
12.7089,79
12.7274,80
12.7460,67
12.7646,80
12.7832,81
12.8018,87
12.8203,88
12.8389,70
12.8575,71
12.8761,61
12.8946,89
12.9132,78
12.9318,72
12.9504,86
12.9689,78
12.9875,75
13.0061,82
13.0247,84
13.0432,92
13.0618,87
13.0804,74
13.0990,79
13.1175,71
13.1361,77
13.1547,72
13.1733,86
13.1918,88
13.2104,77
13.2290,75
13.2476,74
13.2661,81
13.2847,81
13.3033,75
13.3219,73
13.3404,65
13.3590,75
13.3776,65
13.3962,76
13.4147,62
13.4333,75
13.4519,71
13.4705,72
13.4890,68
13.5076,69
13.5262,76
13.5448,68
13.5634,72
13.5819,72
13.6005,72
13.6191,79
13.6377,92
13.6562,65
13.6748,64
13.6934,59
13.7120,63
13.7305,71
13.7491,68
13.7677,75
13.7863,60
13.8048,65
13.8234,61
13.8420,73
13.8606,63
13.8791,58
13.8977,57
13.9163,81
13.9349,54
13.9534,71
13.9720,68
13.9906,73
14.0092,62
14.0277,65
14.0463,83
14.0649,80
14.0835,59
14.1020,67
14.1206,70
14.1392,66
14.1578,60
14.1763,69
14.1949,62
14.2135,69
14.2321,69
14.2506,74
14.2692,81
14.2878,59
14.3064,75
14.3250,49
14.3435,79
14.3621,73
14.3807,79
14.3993,68
14.4178,66
14.4364,72
14.4550,64
14.4736,66
14.4921,58
14.5107,60
14.5293,67
14.5479,50
14.5664,58
14.5850,80
14.6036,67
14.6222,51
14.6407,59
14.6593,66
14.6779,67
14.6965,60
14.7150,48
14.7336,64
14.7522,55
14.7708,66
14.7893,53
14.8079,73
14.8265,50
14.8451,76
14.8636,78
14.8822,69
14.9008,58
14.9194,59
14.9379,53
14.9565,58
14.9751,62
14.9937,69
15.0122,53
15.0308,67
15.0494,61
15.0680,50
15.0866,57
15.1051,55
15.1237,70
15.1423,68
15.1609,70
15.1794,61
15.1980,58
15.2166,58
15.2352,66
15.2537,70
15.2723,55
15.2909,57
15.3095,54
15.3280,67
15.3466,64
15.3652,72
15.3838,71
15.4023,66
15.4209,68
15.4395,54
15.4581,66
15.4766,72
15.4952,66
15.5138,69
15.5324,69
15.5509,59
15.5695,65
15.5881,56
15.6067,55
15.6252,59
15.6438,55
15.6624,70
15.6810,67
15.6995,68
15.7181,67
15.7367,60
15.7553,64
15.7738,44
15.7924,56
15.8110,68
15.8296,54
15.8482,70
15.8667,57
15.8853,63
15.9039,65
15.9225,68
15.9410,65
15.9596,62
15.9782,55
15.9968,68
16.0153,79
16.0339,52
16.0525,54
16.0711,47
16.0896,60
16.1082,49
16.1268,54
16.1454,61
16.1639,55
16.1825,66
16.2011,60
16.2197,58
16.2382,58
16.2568,50
16.2754,60
16.2940,69
16.3125,55
16.3311,68
16.3497,57
16.3683,60
16.3868,54
16.4054,60
16.4240,61
16.4426,54
16.4611,59
16.4797,49
16.4983,60
16.5169,58
16.5354,67
16.5540,56
16.5726,47
16.5912,63
16.6097,55
16.6283,58
16.6469,61
16.6655,64
16.6841,43
16.7026,52
16.7212,44
16.7398,52
16.7584,58
16.7769,69
16.7955,44
16.8141,54
16.8327,51
16.8512,64
16.8698,60
16.8884,51
16.9070,63
16.9255,62
16.9441,61
16.9627,58
16.9813,63
16.9998,75
17.0184,66
17.0370,61
17.0556,64
17.0741,63
17.0927,56
17.1113,53
17.1299,86
17.1484,73
17.1670,71
17.1856,68
17.2042,50
17.2227,70
17.2413,65
17.2599,76
17.2785,61
17.2970,55
17.3156,54
17.3342,43
17.3528,58
17.3713,50
17.3899,56
17.4085,55
17.4271,51
17.4457,69
17.4642,55
17.4828,64
17.5014,67
17.5200,67
17.5385,45
17.5571,65
17.5757,67
17.5943,55
17.6128,67
17.6314,67
17.6500,60
17.6686,62
17.6871,58
17.7057,55
17.7243,38
17.7429,47
17.7614,50
17.7800,50
17.7986,61
17.8172,57
17.8357,55
17.8543,65
17.8729,59
17.8915,67
17.9100,63
17.9286,64
17.9472,45
17.9658,70
17.9843,66
18.0029,68
18.0215,55
18.0401,54
18.0586,58
18.0772,58
18.0958,80
18.1144,64
18.1329,62
18.1515,60
18.1701,58
18.1887,55
18.2073,59
18.2258,55
18.2444,50
18.2630,55
18.2816,53
18.3001,61
18.3187,60
18.3373,71
18.3559,63
18.3744,69
18.3930,54
18.4116,57
18.4302,57
18.4487,47
18.4673,64
18.4859,70
18.5045,65
18.5230,66
18.5416,78
18.5602,59
18.5788,48
18.5973,54
18.6159,60
18.6345,49
18.6531,49
18.6716,67
18.6902,68
18.7088,68
18.7274,73
18.7459,58
18.7645,67
18.7831,63
18.8017,64
18.8202,65
18.8388,59
18.8574,70
18.8760,59
18.8945,66
18.9131,76
18.9317,57
18.9503,63
18.9689,84
18.9874,68
19.0060,67
19.0246,55
19.0432,70
19.0617,61
19.0803,63
19.0989,75
19.1175,67
19.1360,59
19.1546,59
19.1732,66
19.1918,60
19.2103,70
19.2289,68
19.2475,41
19.2661,63
19.2846,59
19.3032,71
19.3218,59
19.3404,53
19.3589,75
19.3775,65
19.3961,77
19.4147,57
19.4332,63
19.4518,67
19.4704,71
19.4890,74
19.5075,64
19.5261,49
19.5447,71
19.5633,51
19.5818,54
19.6004,77
19.6190,48
19.6376,66
19.6561,71
19.6747,64
19.6933,70
19.7119,68
19.7305,87
19.7490,64
19.7676,60
19.7862,55
19.8048,65
19.8233,54
19.8419,58
19.8605,80
19.8791,59
19.8976,59
19.9162,67
19.9348,79
19.9534,67
19.9719,63
19.9905,75
20.0091,57
20.0277,56
20.0462,71
20.0648,78
20.0834,73
20.1020,54
20.1205,79
20.1391,61
20.1577,57
20.1763,68
20.1948,72
20.2134,63
20.2320,63
20.2506,79
20.2691,72
20.2877,49
20.3063,53
20.3249,61
20.3434,60
20.3620,76
20.3806,57
20.3992,69
20.4177,72
20.4363,62
20.4549,79
20.4735,74
20.4921,68
20.5106,70
20.5292,62
20.5478,70
20.5664,57
20.5849,87
20.6035,69
20.6221,62
20.6407,74
20.6592,71
20.6778,80
20.6964,65
20.7150,82
20.7335,68
20.7521,62
20.7707,70
20.7893,69
20.8078,67
20.8264,79
20.8450,74
20.8636,81
20.8821,70
20.9007,66
20.9193,62
20.9379,91
20.9564,67
20.9750,73
20.9936,68
21.0122,85
21.0307,68
21.0493,75
21.0679,89
21.0865,70
21.1050,69
21.1236,70
21.1422,78
21.1608,92
21.1793,97
21.1979,117
21.2165,131
21.2351,127
21.2537,112
21.2722,113
21.2908,103
21.3094,117
21.3280,142
21.3465,155
21.3651,190
21.3837,165
21.4023,118
21.4208,122
21.4394,112
21.4580,92
21.4766,79
21.4951,74
21.5137,62
21.5323,64
21.5509,67
21.5694,70
21.5880,78
21.6066,83
21.6252,69
21.6437,72
21.6623,81
21.6809,85
21.6995,78
21.7180,84
21.7366,57
21.7552,67
21.7738,58
21.7923,73
21.8109,65
21.8295,78
21.8481,62
21.8666,65
21.8852,80
21.9038,61
21.9224,61
21.9409,78
21.9595,66
21.9781,78
21.9967,69
22.0152,72
22.0338,63
22.0524,84
22.0710,76
22.0896,84
22.1081,76
22.1267,71
22.1453,73
22.1639,78
22.1824,83
22.2010,80
22.2196,67
22.2382,75
22.2567,78
22.2753,82
22.2939,64
22.3125,72
22.3310,84
22.3496,72
22.3682,77
22.3868,70
22.4053,75
22.4239,80
22.4425,76
22.4611,69
22.4796,70
22.4982,94
22.5168,86
22.5354,66
22.5539,73
22.5725,69
22.5911,62
22.6097,64
22.6282,65
22.6468,70
22.6654,59
22.6840,74
22.7025,70
22.7211,68
22.7397,77
22.7583,68
22.7768,89
22.7954,67
22.8140,66
22.8326,69
22.8512,68
22.8697,74
22.8883,68
22.9069,79
22.9255,68
22.9440,62
22.9626,78
22.9812,76
22.9998,62
23.0183,71
23.0369,71
23.0555,63
23.0741,72
23.0926,77
23.1112,72
23.1298,64
23.1484,64
23.1669,81
23.1855,68
23.2041,75
23.2227,63
23.2412,84
23.2598,77
23.2784,77
23.2970,80
23.3155,88
23.3341,77
23.3527,91
23.3713,71
23.3898,80
23.4084,85
23.4270,67
23.4456,84
23.4641,69
23.4827,65
23.5013,73
23.5199,89
23.5384,77
23.5570,70
23.5756,78
23.5942,66
23.6128,81
23.6313,79
23.6499,82
23.6685,63
23.6871,72
23.7056,78
23.7242,72
23.7428,66
23.7614,66
23.7799,72
23.7985,82
23.8171,69
23.8357,56
23.8542,77
23.8728,83
23.8914,74
23.9100,70
23.9285,72
23.9471,79
23.9657,66
23.9843,64
24.0028,80
24.0214,79
24.0400,67
24.0586,71
24.0771,69
24.0957,56
24.1143,93
24.1329,73
24.1514,65
24.1700,84
24.1886,71
24.2072,83
24.2257,69
24.2443,76
24.2629,78
24.2815,77
24.3000,89
24.3186,87
24.3372,73
24.3558,70
24.3744,78
24.3929,75
24.4115,90
24.4301,79
24.4487,62
24.4672,67
24.4858,83
24.5044,80
24.5230,62
24.5415,73
24.5601,64
24.5787,69
24.5973,76
24.6158,79
24.6344,66
24.6530,78
24.6716,84
24.6901,78
24.7087,78
24.7273,64
24.7459,70
24.7644,74
24.7830,72
24.8016,73
24.8202,83
24.8387,80
24.8573,73
24.8759,65
24.8945,55
24.9130,59
24.9316,64
24.9502,78
24.9688,71
24.9873,57
25.0059,81
25.0245,67
25.0431,74
25.0616,70
25.0802,79
25.0988,73
25.1174,74
25.1360,77
25.1545,81
25.1731,82
25.1917,67
25.2103,80
25.2288,71
25.2474,76
25.2660,59
25.2846,69
25.3031,82
25.3217,67
25.3403,88
25.3589,78
25.3774,82
25.3960,77
25.4146,81
25.4332,81
25.4517,72
25.4703,82
25.4889,75
25.5075,66
25.5260,59
25.5446,62
25.5632,79
25.5818,80
25.6003,63
25.6189,74
25.6375,71
25.6561,66
25.6746,79
25.6932,65
25.7118,72
25.7304,78
25.7489,79
25.7675,80
25.7861,79
25.8047,80
25.8232,72
25.8418,66
25.8604,65
25.8790,82
25.8976,72
25.9161,55
25.9347,75
25.9533,77
25.9719,71
25.9904,53
26.0090,77
26.0276,60
26.0462,66
26.0647,67
26.0833,71
26.1019,73
26.1205,75
26.1390,65
26.1576,74
26.1762,73
26.1948,78
26.2133,87
26.2319,62
26.2505,69
26.2691,57
26.2876,69
26.3062,76
26.3248,57
26.3434,71
26.3619,63
26.3805,68
26.3991,57
26.4177,65
26.4362,80
26.4548,62
26.4734,51
26.4920,56
26.5105,58
26.5291,66
26.5477,74
26.5663,85
26.5848,74
26.6034,54
26.6220,74
26.6406,60
26.6591,45
26.6777,66
26.6963,70
26.7149,65
26.7335,63
26.7520,65
26.7706,48
26.7892,73
26.8078,77
26.8263,70
26.8449,75
26.8635,60
26.8821,66
26.9006,69
26.9192,70
26.9378,78
26.9564,75
26.9749,70
26.9935,70
27.0121,77
27.0307,47
27.0492,67
27.0678,68
27.0864,64
27.1050,71
27.1235,72
27.1421,77
27.1607,102
27.1793,79
27.1978,95
27.2164,81
27.2350,88
27.2536,94
27.2721,78
27.2907,93
27.3093,65
27.3279,73
27.3464,72
27.3650,65
27.3836,52
27.4022,68
27.4207,78
27.4393,60
27.4579,83
27.4765,59
27.4951,67
27.5136,60
27.5322,73
27.5508,60
27.5694,64
27.5879,67
27.6065,69
27.6251,65
27.6437,72
27.6622,62
27.6808,66
27.6994,62
27.7180,66
27.7365,62
27.7551,60
27.7737,45
27.7923,51
27.8108,68
27.8294,68
27.8480,69
27.8666,72
27.8851,59
27.9037,69
27.9223,60
27.9409,69
27.9594,53
27.9780,64
27.9966,51
28.0152,55
28.0337,57
28.0523,56
28.0709,76
28.0895,60
28.1080,68
28.1266,55
28.1452,53
28.1638,54
28.1823,63
28.2009,62
28.2195,68
28.2381,56
28.2567,58
28.2752,60
28.2938,57
28.3124,52
28.3310,63
28.3495,53
28.3681,49
28.3867,65
28.4053,61
28.4238,51
28.4424,59
28.4610,51
28.4796,59
28.4981,67
28.5167,40
28.5353,76
28.5539,63
28.5724,79
28.5910,72
28.6096,57
28.6282,70
28.6467,61
28.6653,67
28.6839,63
28.7025,62
28.7210,75
28.7396,58
28.7582,53
28.7768,68
28.7953,57
28.8139,63
28.8325,57
28.8511,63
28.8696,64
28.8882,66
28.9068,75
28.9254,61
28.9439,70
28.9625,58
28.9811,61
28.9997,58
29.0183,48
29.0368,61
29.0554,63
29.0740,53
29.0926,56
29.1111,56
29.1297,52
29.1483,50
29.1669,72
29.1854,66
29.2040,67
29.2226,61
29.2412,51
29.2597,54
29.2783,57
29.2969,57
29.3155,85
29.3340,59
29.3526,56
29.3712,64
29.3898,50
29.4083,60
29.4269,64
29.4455,49
29.4641,56
29.4826,61
29.5012,63
29.5198,62
29.5384,55
29.5569,56
29.5755,53
29.5941,68
29.6127,52
29.6312,58
29.6498,76
29.6684,54
29.6870,60
29.7055,58
29.7241,50
29.7427,48
29.7613,61
29.7799,57
29.7984,61
29.8170,70
29.8356,65
29.8542,73
29.8727,60
29.8913,61
29.9099,64
29.9285,49
29.9470,63
29.9656,53
29.9842,61
30.0028,56
30.0213,44
30.0399,63
30.0585,65
30.0771,45
30.0956,69
30.1142,67
30.1328,43
30.1514,65
30.1699,53
30.1885,61
30.2071,56
30.2257,53
30.2442,71
30.2628,60
30.2814,70
30.3000,67
30.3185,59
30.3371,83
30.3557,98
30.3743,127
30.3928,106
30.4114,87
30.4300,73
30.4486,89
30.4671,82
30.4857,83
30.5043,74
30.5229,79
30.5415,58
30.5600,61
30.5786,56
30.5972,64
30.6158,59
30.6343,58
30.6529,65
30.6715,47
30.6901,51
30.7086,61
30.7272,55
30.7458,58
30.7644,54
30.7829,65
30.8015,61
30.8201,45
30.8387,49
30.8572,59
30.8758,54
30.8944,45
30.9130,46
30.9315,55
30.9501,51
30.9687,53
30.9873,57
31.0058,50
31.0244,65
31.0430,56
31.0616,50
31.0801,58
31.0987,60
31.1173,59
31.1359,51
31.1544,57
31.1730,51
31.1916,64
31.2102,72
31.2287,45
31.2473,64
31.2659,57
31.2845,59
31.3030,51
31.3216,42
31.3402,49
31.3588,39
31.3774,47
31.3959,49
31.4145,49
31.4331,46
31.4517,66
31.4702,49
31.4888,60
31.5074,49
31.5260,50
31.5445,40
31.5631,42
31.5817,44
31.6003,41
31.6188,50
31.6374,62
31.6560,49
31.6746,56
31.6931,60
31.7117,38
31.7303,47
31.7489,34
31.7674,44
31.7860,46
31.8046,55
31.8232,50
31.8417,43
31.8603,42
31.8789,63
31.8975,49
31.9160,42
31.9346,41
31.9532,51
31.9718,45
31.9903,55
32.0089,42
32.0275,59
32.0461,43
32.0646,47
32.0832,48
32.1018,41
32.1204,39
32.1390,46
32.1575,52
32.1761,37
32.1947,31
32.2133,45
32.2318,51
32.2504,47
32.2690,55
32.2876,40
32.3061,48
32.3247,47
32.3433,52
32.3619,66
32.3804,43
32.3990,49
32.4176,48
32.4362,43
32.4547,43
32.4733,38
32.4919,45
32.5105,60
32.5290,66
32.5476,54
32.5662,54
32.5848,46
32.6033,32
32.6219,54
32.6405,56
32.6591,48
32.6776,48
32.6962,47
32.7148,42
32.7334,49
32.7519,58
32.7705,46
32.7891,34
32.8077,45
32.8262,42
32.8448,54
32.8634,55
32.8820,51
32.9006,39
32.9191,42
32.9377,52
32.9563,41
32.9749,58
32.9934,41
33.0120,48
33.0306,43
33.0492,33
33.0677,35
33.0863,36
33.1049,44
33.1235,48
33.1420,43
33.1606,39
33.1792,44
33.1978,44
33.2163,38
33.2349,36
33.2535,41
33.2721,53
33.2906,49
33.3092,51
33.3278,32
33.3464,51
33.3649,42
33.3835,45
33.4021,62
33.4207,46
33.4392,35
33.4578,46
33.4764,33
33.4950,42
33.5135,43
33.5321,53
33.5507,45
33.5693,44
33.5878,35
33.6064,42
33.6250,37
33.6436,46
33.6622,33
33.6807,31
33.6993,43
33.7179,51
33.7365,45
33.7550,52
33.7736,48
33.7922,43
33.8108,45
33.8293,36
33.8479,51
33.8665,50
33.8851,50
33.9036,35
33.9222,39
33.9408,61
33.9594,29
33.9779,49
33.9965,32
34.0151,38
34.0337,40
34.0522,48
34.0708,35
34.0894,40
34.1080,42
34.1265,36
34.1451,35
34.1637,53
34.1823,41
34.2008,47
34.2194,41
34.2380,38
34.2566,46
34.2751,52
34.2937,46
34.3123,56
34.3309,38
34.3494,44
34.3680,41
34.3866,36
34.4052,49
34.4238,39
34.4423,41
34.4609,41
34.4795,45
34.4981,49
34.5166,49
34.5352,47
34.5538,47
34.5724,43
34.5909,35
34.6095,60
34.6281,45
34.6467,61
34.6652,34
34.6838,44
34.7024,44
34.7210,57
34.7395,55
34.7581,67
34.7767,67
34.7953,55
34.8138,56
34.8324,61
34.8510,59
34.8696,52
34.8881,51
34.9067,53
34.9253,43
34.9439,51
34.9624,39
34.9810,41
34.9996,41
35.0182,47
35.0367,42
35.0553,41
35.0739,53
35.0925,39
35.1110,43
35.1296,42
35.1482,42
35.1668,30
35.1854,42
35.2039,49
35.2225,37
35.2411,32
35.2597,29
35.2782,40
35.2968,42
35.3154,39
35.3340,42
35.3525,33
35.3711,41
35.3897,40
35.4083,30
35.4268,28
35.4454,31
35.4640,53
35.4826,44
35.5011,24
35.5197,27
35.5383,31
35.5569,22
35.5754,32
35.5940,35
35.6126,30
35.6312,34
35.6497,31
35.6683,31
35.6869,39
35.7055,28
35.7240,44
35.7426,38
35.7612,26
35.7798,45
35.7983,40
35.8169,32
35.8355,31
35.8541,30
35.8726,28
35.8912,45
35.9098,39
35.9284,32
35.9469,41
35.9655,39
35.9841,32
36.0027,24
36.0213,33
36.0398,33
36.0584,30
36.0770,35
36.0956,38
36.1141,33
36.1327,34
36.1513,44
36.1699,40
36.1884,40
36.2070,38
36.2256,32
36.2442,33
36.2627,46
36.2813,52
36.2999,34
36.3185,51
36.3370,40
36.3556,37
36.3742,30
36.3928,32
36.4113,44
36.4299,31
36.4485,28
36.4671,41
36.4856,35
36.5042,33
36.5228,34
36.5414,35
36.5599,23
36.5785,36
36.5971,33
36.6157,31
36.6342,31
36.6528,33
36.6714,41
36.6900,46
36.7085,29
36.7271,35
36.7457,31
36.7643,26
36.7829,43
36.8014,40
36.8200,42
36.8386,28
36.8572,25
36.8757,40
36.8943,35
36.9129,37
36.9315,33
36.9500,34
36.9686,27
36.9872,26
37.0058,40
37.0243,32
37.0429,45
37.0615,41
37.0801,41
37.0986,33
37.1172,29
37.1358,47
37.1544,39
37.1729,34
37.1915,28
37.2101,32
37.2287,27
37.2472,22
37.2658,33
37.2844,29
37.3030,34
37.3215,34
37.3401,43
37.3587,40
37.3773,36
37.3958,43
37.4144,46
37.4330,55
37.4516,51
37.4701,38
37.4887,33
37.5073,40
37.5259,48
37.5445,42
37.5630,52
37.5816,35
37.6002,29
37.6188,34
37.6373,32
37.6559,49
37.6745,29
37.6931,34
37.7116,25
37.7302,46
37.7488,34
37.7674,38
37.7859,27
37.8045,41
37.8231,38
37.8417,31
37.8602,25
37.8788,28
37.8974,37
37.9160,35
37.9345,30
37.9531,21
37.9717,27
37.9903,23
38.0088,32
38.0274,32
38.0460,32
38.0646,29
38.0831,29
38.1017,28
38.1203,35
38.1389,21
38.1574,34
38.1760,25
38.1946,29
38.2132,23
38.2317,37
38.2503,29
38.2689,36
38.2875,33
38.3061,34
38.3246,27
38.3432,29
38.3618,25
38.3804,27
38.3989,32
38.4175,31
38.4361,39
38.4547,24
38.4732,39
38.4918,37
38.5104,36
38.5290,30
38.5475,37
38.5661,36
38.5847,28
38.6033,33
38.6218,34
38.6404,39
38.6590,29
38.6776,33
38.6961,26
38.7147,35
38.7333,35
38.7519,29
38.7704,22
38.7890,23
38.8076,25
38.8262,26
38.8447,36
38.8633,40
38.8819,26
38.9005,36
38.9190,30
38.9376,21
38.9562,31
38.9748,30
38.9933,37
39.0119,41
39.0305,20
39.0491,31
39.0677,36
39.0862,47
39.1048,36
39.1234,29
39.1420,35
39.1605,30
39.1791,29
39.1977,38
39.2163,17
39.2348,16
39.2534,27
39.2720,23
39.2906,29
39.3091,31
39.3277,32
39.3463,24
39.3649,34
39.3834,26
39.4020,31
39.4206,20
39.4392,31
39.4577,34
39.4763,30
39.4949,32
39.5135,37
39.5320,33
39.5506,28
39.5692,32
39.5878,22
39.6063,24
39.6249,22
39.6435,23
39.6621,30
39.6806,29
39.6992,33
39.7178,30
39.7364,23
39.7549,29
39.7735,45
39.7921,20
39.8107,34
39.8293,26
39.8478,36
39.8664,25
39.8850,32
39.9036,40
39.9221,32
39.9407,35
39.9593,26
39.9779,20
39.9964,30
40.0150,32
40.0336,25
40.0522,25
40.0707,35
40.0893,22
40.1079,37
40.1265,32
40.1450,31
40.1636,26
40.1822,28
40.2008,17
40.2193,21
40.2379,25
40.2565,27
40.2751,19
40.2936,22
40.3122,28
40.3308,25
40.3494,27
40.3679,31
40.3865,21
40.4051,28
40.4237,31
40.4422,30
40.4608,25
40.4794,27
40.4980,21
40.5165,13
40.5351,22
40.5537,37
40.5723,48
40.5908,28
40.6094,33
40.6280,23
40.6466,28
40.6652,23
40.6837,25
40.7023,23
40.7209,27
40.7395,27
40.7580,28
40.7766,27
40.7952,28
40.8138,22
40.8323,20
40.8509,32
40.8695,28
40.8881,24
40.9066,29
40.9252,19
40.9438,25
40.9624,37
40.9809,23
40.9995,38
41.0181,33
41.0367,25
41.0552,26
41.0738,26
41.0924,32
41.1110,47
41.1295,24
41.1481,23
41.1667,38
41.1853,24
41.2038,33
41.2224,27
41.2410,27
41.2596,28
41.2781,22
41.2967,28
41.3153,35
41.3339,27
41.3524,24
41.3710,26
41.3896,30
41.4082,25
41.4268,28
41.4453,33
41.4639,29
41.4825,25
41.5011,30
41.5196,30
41.5382,25
41.5568,31
41.5754,21
41.5939,32
41.6125,24
41.6311,25
41.6497,25
41.6682,34
41.6868,19
41.7054,27
41.7240,16
41.7425,27
41.7611,29
41.7797,39
41.7983,19
41.8168,22
41.8354,16
41.8540,26
41.8726,28
41.8911,22
41.9097,29
41.9283,28
41.9469,32
41.9654,27
41.9840,28
42.0026,28
42.0212,24
42.0397,20
42.0583,26
42.0769,24
42.0955,21
42.1140,21
42.1326,25
42.1512,31
42.1698,23
42.1884,35
42.2069,32
42.2255,34
42.2441,27
42.2627,40
42.2812,36
42.2998,26
42.3184,24
42.3370,27
42.3555,32
42.3741,26
42.3927,20
42.4113,24
42.4298,25
42.4484,32
42.4670,26
42.4856,24
42.5041,28
42.5227,30
42.5413,28
42.5599,25
42.5784,25
42.5970,27
42.6156,27
42.6342,21
42.6527,38
42.6713,22
42.6899,27
42.7085,30
42.7270,29
42.7456,25
42.7642,21
42.7828,25
42.8013,20
42.8199,28
42.8385,17
42.8571,26
42.8756,27
42.8942,30
42.9128,32
42.9314,24
42.9500,27
42.9685,38
42.9871,22
43.0057,22
43.0243,22
43.0428,27
43.0614,37
43.0800,32
43.0986,38
43.1171,32
43.1357,33
43.1543,29
43.1729,22
43.1914,31
43.2100,27
43.2286,47
43.2472,34
43.2657,33
43.2843,34
43.3029,37
43.3215,34
43.3400,39
43.3586,20
43.3772,28
43.3958,33
43.4143,31
43.4329,32
43.4515,39
43.4701,30
43.4886,57
43.5072,66
43.5258,43
43.5444,37
43.5629,33
43.5815,22
43.6001,34
43.6187,58
43.6372,18
43.6558,23
43.6744,39
43.6930,25
43.7116,23
43.7301,30
43.7487,24
43.7673,22
43.7859,26
43.8044,25
43.8230,33
43.8416,33
43.8602,28
43.8787,32
43.8973,21
43.9159,19
43.9345,17
43.9530,33
43.9716,34
43.9902,25
44.0088,22
44.0273,26
44.0459,21
44.0645,28
44.0831,25
44.1016,30
44.1202,29
44.1388,24
44.1574,21
44.1759,24
44.1945,29
44.2131,34
44.2317,18
44.2502,26
44.2688,28
44.2874,29
44.3060,24
44.3245,24
44.3431,19
44.3617,35
44.3803,12
44.3988,24
44.4174,31
44.4360,20
44.4546,26
44.4732,27
44.4917,37
44.5103,30
44.5289,30
44.5475,29
44.5660,37
44.5846,35
44.6032,35
44.6218,34
44.6403,26
44.6589,25
44.6775,31
44.6961,18
44.7146,27
44.7332,31
44.7518,31
44.7704,17
44.7889,22
44.8075,31
44.8261,24
44.8447,28
44.8632,25
44.8818,18
44.9004,28
44.9190,18
44.9375,23
44.9561,29
44.9747,20
44.9933,24
45.0118,26
45.0304,30
45.0490,32
45.0676,22
45.0861,25
45.1047,22
45.1233,22
45.1419,27
45.1604,23
45.1790,20
45.1976,20
45.2162,37
45.2347,15
45.2533,25
45.2719,23
45.2905,23
45.3091,24
45.3276,27
45.3462,22
45.3648,33
45.3834,26
45.4019,33
45.4205,31
45.4391,28
45.4577,25
45.4762,28
45.4948,27
45.5134,20
45.5320,25
45.5505,23
45.5691,19
45.5877,26
45.6063,19
45.6248,36
45.6434,21
45.6620,22
45.6806,28
45.6991,22
45.7177,23
45.7363,29
45.7549,25
45.7734,21
45.7920,14
45.8106,36
45.8292,23
45.8477,24
45.8663,22
45.8849,17
45.9035,18
45.9220,30
45.9406,25
45.9592,18
45.9778,25
45.9963,14
46.0149,26
46.0335,26
46.0521,24
46.0707,23
46.0892,23
46.1078,27
46.1264,30
46.1450,22
46.1635,16
46.1821,21
46.2007,30
46.2193,18
46.2378,27
46.2564,29
46.2750,29
46.2936,20
46.3121,20
46.3307,20
46.3493,22
46.3679,20
46.3864,31
46.4050,31
46.4236,18
46.4422,28
46.4607,24
46.4793,20
46.4979,31
46.5165,27
46.5350,26
46.5536,31
46.5722,26
46.5908,24
46.6093,21
46.6279,20
46.6465,25
46.6651,26
46.6836,28
46.7022,20
46.7208,25
46.7394,21
46.7579,24
46.7765,24
46.7951,21
46.8137,23
46.8323,28
46.8508,34
46.8694,34
46.8880,28
46.9066,21
46.9251,23
46.9437,28
46.9623,27
46.9809,22
46.9994,27
47.0180,16
47.0366,20
47.0552,35
47.0737,22
47.0923,20
47.1109,25
47.1295,22
47.1480,35
47.1666,34
47.1852,23
47.2038,30
47.2223,25
47.2409,24
47.2595,26
47.2781,41
47.2966,27
47.3152,28
47.3338,26
47.3524,27
47.3709,27
47.3895,25
47.4081,31
47.4267,18
47.4452,18
47.4638,23
47.4824,22
47.5010,21
47.5195,23
47.5381,24
47.5567,21
47.5753,23
47.5939,18
47.6124,20
47.6310,30
47.6496,23
47.6682,40
47.6867,24
47.7053,25
47.7239,14
47.7425,17
47.7610,28
47.7796,26
47.7982,19
47.8168,14
47.8353,21
47.8539,26
47.8725,25
47.8911,24
47.9096,16
47.9282,28
47.9468,23
47.9654,24
47.9839,21
48.0025,18
48.0211,25
48.0397,33
48.0582,22
48.0768,25
48.0954,24
48.1140,15
48.1325,15
48.1511,18
48.1697,28
48.1883,30
48.2068,31
48.2254,21
48.2440,22
48.2626,28
48.2811,18
48.2997,24
48.3183,31
48.3369,21
48.3555,27
48.3740,19
48.3926,32
48.4112,19
48.4298,21
48.4483,23
48.4669,21
48.4855,25
48.5041,22
48.5226,27
48.5412,24
48.5598,32
48.5784,23
48.5969,31
48.6155,23
48.6341,21
48.6527,26
48.6712,20
48.6898,28
48.7084,24
48.7270,21
48.7455,30
48.7641,32
48.7827,24
48.8013,16
48.8198,22
48.8384,24
48.8570,27
48.8756,29
48.8941,32
48.9127,26
48.9313,44
48.9499,44
48.9684,36
48.9870,50
49.0056,32
49.0242,27
49.0427,27
49.0613,25
49.0799,41
49.0985,32
49.1171,38
49.1356,32
49.1542,33
49.1728,27
49.1914,17
49.2099,27
49.2285,24
49.2471,23
49.2657,18
49.2842,18
49.3028,19
49.3214,25
49.3400,28
49.3585,22
49.3771,25
49.3957,20
49.4143,19
49.4328,30
49.4514,12
49.4700,19
49.4886,20
49.5071,10
49.5257,22
49.5443,31
49.5629,23
49.5814,27
49.6000,21
49.6186,16
49.6372,22
49.6557,15
49.6743,26
49.6929,31
49.7115,18
49.7300,17
49.7486,22
49.7672,23
49.7858,28
49.8043,33
49.8229,23
49.8415,20
49.8601,18
49.8786,24
49.8972,27
49.9158,30
49.9344,16
49.9530,26
49.9715,17
49.9901,16
50.0087,22
50.0273,19
50.0458,25
50.0644,29
50.0830,12
50.1016,30
50.1201,27
50.1387,26
50.1573,18
50.1759,25
50.1944,22
50.2130,27
50.2316,17
50.2502,29
50.2687,18
50.2873,23
50.3059,30
50.3245,24
50.3430,25
50.3616,18
50.3802,18
50.3988,18
50.4173,13
50.4359,25
50.4545,23
50.4731,20
50.4916,27
50.5102,24
50.5288,21
50.5474,31
50.5659,21
50.5845,20
50.6031,21
50.6217,18
50.6402,21
50.6588,21
50.6774,23
50.6960,21
50.7146,20
50.7331,20
50.7517,19
50.7703,17
50.7889,31
50.8074,19
50.8260,19
50.8446,22
50.8632,22
50.8817,15
50.9003,25
50.9189,15
50.9375,20
50.9560,23
50.9746,21
50.9932,23
51.0118,28
51.0303,19
51.0489,27
51.0675,23
51.0861,26
51.1046,25
51.1232,29
51.1418,27
51.1604,22
51.1789,28
51.1975,23
51.2161,19
51.2347,25
51.2532,18
51.2718,21
51.2904,22
51.3090,21
51.3275,16
51.3461,28
51.3647,20
51.3833,29
51.4018,21
51.4204,25
51.4390,27
51.4576,30
51.4762,28
51.4947,19
51.5133,26
51.5319,22
51.5505,25
51.5690,26
51.5876,22
51.6062,21
51.6248,23
51.6433,14
51.6619,15
51.6805,19
51.6991,28
51.7176,20
51.7362,21
51.7548,27
51.7734,29
51.7919,20
51.8105,22
51.8291,22
51.8477,22
51.8662,23
51.8848,17
51.9034,23
51.9220,21
51.9405,21
51.9591,20
51.9777,23
51.9963,18
52.0148,16
52.0334,33
52.0520,18
52.0706,21
52.0891,24
52.1077,28
52.1263,19
52.1449,14
52.1634,21
52.1820,14
52.2006,29
52.2192,30
52.2378,22
52.2563,20
52.2749,37
52.2935,23
52.3121,22
52.3306,25
52.3492,25
52.3678,16
52.3864,23
52.4049,20
52.4235,20
52.4421,10
52.4607,19
52.4792,19
52.4978,22
52.5164,28
52.5350,13
52.5535,26
52.5721,21
52.5907,28
52.6093,19
52.6278,17
52.6464,24
52.6650,28
52.6836,15
52.7021,24
52.7207,23
52.7393,25
52.7579,26
52.7764,22
52.7950,20
52.8136,15
52.8322,19
52.8507,32
52.8693,22
52.8879,24
52.9065,20
52.9250,16
52.9436,23
52.9622,28
52.9808,27
52.9994,34
53.0179,23
53.0365,17
53.0551,16
53.0737,25
53.0922,32
53.1108,17
53.1294,21
53.1480,24
53.1665,25
53.1851,23
53.2037,20
53.2223,20
53.2408,18
53.2594,20
53.2780,23
53.2966,23
53.3151,18
53.3337,20
53.3523,23
53.3709,17
53.3894,22
53.4080,19
53.4266,21
53.4452,23
53.4637,21
53.4823,21
53.5009,23
53.5195,19
53.5380,19
53.5566,15
53.5752,27
53.5938,23
53.6123,21
53.6309,16
53.6495,23
53.6681,19
53.6866,26
53.7052,21
53.7238,26
53.7424,27
53.7610,24
53.7795,17
53.7981,27
53.8167,23
53.8353,19
53.8538,25
53.8724,23
53.8910,27
53.9096,19
53.9281,27
53.9467,18
53.9653,30
53.9839,31
54.0024,35
54.0210,28
54.0396,33
54.0582,35
54.0767,33
54.0953,22
54.1139,25
54.1325,33
54.1510,27
54.1696,32
54.1882,18
54.2068,12
54.2253,19
54.2439,23
54.2625,14
54.2811,20
54.2996,29
54.3182,33
54.3368,23
54.3554,20
54.3739,22
54.3925,18
54.4111,16
54.4297,23
54.4482,19
54.4668,26
54.4854,28
54.5040,16
54.5225,29
54.5411,24
54.5597,11
54.5783,13
54.5969,16
54.6154,20
54.6340,27
54.6526,20
54.6712,22
54.6897,20
54.7083,20
54.7269,22
54.7455,19
54.7640,23
54.7826,29
54.8012,22
54.8198,19
54.8383,31
54.8569,22
54.8755,19
54.8941,18
54.9126,21
54.9312,15
54.9498,13
54.9684,25
54.9869,24
55.0055,15
55.0241,14
55.0427,25
55.0612,15
55.0798,19
55.0984,27
55.1170,16
55.1355,24
55.1541,23
55.1727,19
55.1913,18
55.2098,18
55.2284,28
55.2470,12
55.2656,23
55.2841,30
55.3027,25
55.3213,23
55.3399,29
55.3585,20
55.3770,21
55.3956,22
55.4142,17
55.4328,18
55.4513,9
55.4699,20
55.4885,18
55.5071,17
55.5256,19
55.5442,22
55.5628,20
55.5814,21
55.5999,20
55.6185,17
55.6371,19
55.6557,17
55.6742,18
55.6928,17
55.7114,26
55.7300,24
55.7485,17
55.7671,14
55.7857,23
55.8043,27
55.8228,25
55.8414,17
55.8600,27
55.8786,29
55.8971,21
55.9157,19
55.9343,21
55.9529,25
55.9714,17
55.9900,26
56.0086,22
56.0272,19
56.0457,28
56.0643,19
56.0829,23
56.1015,21
56.1201,18
56.1386,21
56.1572,17
56.1758,11
56.1944,18
56.2129,37
56.2315,26
56.2501,23
56.2687,19
56.2872,33
56.3058,24
56.3244,18
56.3430,28
56.3615,23
56.3801,16
56.3987,18
56.4173,24
56.4358,19
56.4544,24
56.4730,21
56.4916,14
56.5101,27
56.5287,24
56.5473,16
56.5659,24
56.5844,16
56.6030,14
56.6216,20
56.6402,18
56.6587,20
56.6773,19
56.6959,32
56.7145,25
56.7330,20
56.7516,16
56.7702,18
56.7888,27
56.8073,21
56.8259,19
56.8445,21
56.8631,13
56.8817,21
56.9002,24
56.9188,22
56.9374,21
56.9560,16
56.9745,21
56.9931,22
57.0117,24
57.0303,15
57.0488,31
57.0674,21
57.0860,17
57.1046,19
57.1231,18
57.1417,16
57.1603,8
57.1789,14
57.1974,21
57.2160,19
57.2346,19
57.2532,21
57.2717,24
57.2903,14
57.3089,22
57.3275,17
57.3460,24
57.3646,20
57.3832,17
57.4018,24
57.4203,16
57.4389,16
57.4575,26
57.4761,23
57.4946,17
57.5132,22
57.5318,22
57.5504,18
57.5689,22
57.5875,14
57.6061,21
57.6247,20
57.6433,18
57.6618,14
57.6804,18
57.6990,24
57.7176,24
57.7361,25
57.7547,23
57.7733,21
57.7919,25
57.8104,22
57.8290,20
57.8476,21
57.8662,20
57.8847,18
57.9033,27
57.9219,32
57.9405,21
57.9590,20
57.9776,17
57.9962,19
58.0148,28
58.0333,21
58.0519,15
58.0705,22
58.0891,22
58.1076,17
58.1262,13
58.1448,18
58.1634,14
58.1819,22
58.2005,22
58.2191,21
58.2377,21
58.2562,22
58.2748,19
58.2934,26
58.3120,25
58.3305,23
58.3491,28
58.3677,23
58.3863,27
58.4049,14
58.4234,15
58.4420,13
58.4606,18
58.4792,21
58.4977,32
58.5163,21
58.5349,25
58.5535,12
58.5720,18
58.5906,27
58.6092,20
58.6278,23
58.6463,25
58.6649,21
58.6835,24
58.7021,23
58.7206,16
58.7392,23
58.7578,20
58.7764,17
58.7949,22
58.8135,18
58.8321,22
58.8507,12
58.8692,23
58.8878,20
58.9064,13
58.9250,14
58.9435,24
58.9621,26
58.9807,27
58.9993,22
59.0178,26
59.0364,16
59.0550,19
59.0736,22
59.0921,17
59.1107,26
59.1293,20
59.1479,14
59.1664,18
59.1850,17
59.2036,19
59.2222,26
59.2408,24
59.2593,20
59.2779,21
59.2965,25
59.3151,25
59.3336,12
59.3522,21
59.3708,27
59.3894,20
59.4079,18
59.4265,18
59.4451,7
59.4637,17
59.4822,11
59.5008,19
59.5194,27
59.5380,18
59.5565,19
59.5751,21
59.5937,17
59.6123,22
59.6308,24
59.6494,26
59.6680,14
59.6866,22
59.7051,19
59.7237,17
59.7423,23
59.7609,17
59.7794,20
59.7980,20
59.8166,22
59.8352,20
59.8537,15
59.8723,16
59.8909,14
59.9095,19
59.9280,19
59.9466,20
59.9652,19
59.9838,21
60.0024,27
